#  E (eV)   dosup(E)     dosdw(E)   Int dos(E) EFermi =    9.431 eV
   5.000  0.3655E+01  0.3654E+01  0.5277E+02
   5.010  0.3531E+01  0.3529E+01  0.5284E+02
   5.020  0.3450E+01  0.3450E+01  0.5291E+02
   5.030  0.3469E+01  0.3469E+01  0.5298E+02
   5.040  0.3497E+01  0.3496E+01  0.5305E+02
   5.050  0.3525E+01  0.3524E+01  0.5312E+02
   5.060  0.3553E+01  0.3553E+01  0.5319E+02
   5.070  0.3582E+01  0.3582E+01  0.5326E+02
   5.080  0.3612E+01  0.3611E+01  0.5334E+02
   5.090  0.3642E+01  0.3641E+01  0.5341E+02
   5.100  0.3672E+01  0.3672E+01  0.5348E+02
   5.110  0.3703E+01  0.3702E+01  0.5355E+02
   5.120  0.3733E+01  0.3733E+01  0.5363E+02
   5.130  0.3763E+01  0.3763E+01  0.5370E+02
   5.140  0.3793E+01  0.3793E+01  0.5378E+02
   5.150  0.3823E+01  0.3823E+01  0.5386E+02
   5.160  0.3853E+01  0.3852E+01  0.5393E+02
   5.170  0.3882E+01  0.3882E+01  0.5401E+02
   5.180  0.3912E+01  0.3911E+01  0.5409E+02
   5.190  0.3941E+01  0.3940E+01  0.5417E+02
   5.200  0.3970E+01  0.3969E+01  0.5425E+02
   5.210  0.3998E+01  0.3998E+01  0.5432E+02
   5.220  0.4026E+01  0.4026E+01  0.5441E+02
   5.230  0.5101E+01  0.5103E+01  0.5449E+02
   5.240  0.5933E+01  0.5933E+01  0.5461E+02
   5.250  0.5582E+01  0.5582E+01  0.5472E+02
   5.260  0.5236E+01  0.5235E+01  0.5483E+02
   5.270  0.4894E+01  0.4893E+01  0.5493E+02
   5.280  0.4556E+01  0.4555E+01  0.5503E+02
   5.290  0.4254E+01  0.4253E+01  0.5512E+02
   5.300  0.4064E+01  0.4064E+01  0.5520E+02
   5.310  0.4086E+01  0.4086E+01  0.5528E+02
   5.320  0.4362E+01  0.4362E+01  0.5536E+02
   5.330  0.4654E+01  0.4654E+01  0.5545E+02
   5.340  0.4954E+01  0.4955E+01  0.5555E+02
   5.350  0.5264E+01  0.5265E+01  0.5565E+02
   5.360  0.5540E+01  0.5541E+01  0.5576E+02
   5.370  0.5522E+01  0.5523E+01  0.5587E+02
   5.380  0.5492E+01  0.5492E+01  0.5598E+02
   5.390  0.5466E+01  0.5467E+01  0.5609E+02
   5.400  0.5444E+01  0.5444E+01  0.5620E+02
   5.410  0.5432E+01  0.5433E+01  0.5631E+02
   5.420  0.5434E+01  0.5436E+01  0.5642E+02
   5.430  0.5503E+01  0.5504E+01  0.5653E+02
   5.440  0.5591E+01  0.5593E+01  0.5664E+02
   5.450  0.5677E+01  0.5679E+01  0.5675E+02
   5.460  0.5761E+01  0.5763E+01  0.5686E+02
   5.470  0.5842E+01  0.5845E+01  0.5698E+02
   5.480  0.5922E+01  0.5925E+01  0.5710E+02
   5.490  0.5999E+01  0.6002E+01  0.5722E+02
   5.500  0.6074E+01  0.6077E+01  0.5734E+02
   5.510  0.6154E+01  0.6158E+01  0.5746E+02
   5.520  0.6247E+01  0.6251E+01  0.5758E+02
   5.530  0.6332E+01  0.6335E+01  0.5771E+02
   5.540  0.6427E+01  0.6431E+01  0.5784E+02
   5.550  0.6482E+01  0.6485E+01  0.5797E+02
   5.560  0.6498E+01  0.6500E+01  0.5810E+02
   5.570  0.6532E+01  0.6534E+01  0.5823E+02
   5.580  0.6607E+01  0.6609E+01  0.5836E+02
   5.590  0.6712E+01  0.6713E+01  0.5849E+02
   5.600  0.6785E+01  0.6785E+01  0.5863E+02
   5.610  0.6813E+01  0.6812E+01  0.5876E+02
   5.620  0.6685E+01  0.6683E+01  0.5890E+02
   5.630  0.6520E+01  0.6518E+01  0.5903E+02
   5.640  0.6610E+01  0.6611E+01  0.5916E+02
   5.650  0.7569E+01  0.7592E+01  0.5930E+02
   5.660  0.8592E+01  0.8600E+01  0.5946E+02
   5.670  0.8832E+01  0.8836E+01  0.5964E+02
   5.680  0.9046E+01  0.9045E+01  0.5982E+02
   5.690  0.9094E+01  0.9092E+01  0.6000E+02
   5.700  0.8920E+01  0.8916E+01  0.6018E+02
   5.710  0.8577E+01  0.8572E+01  0.6035E+02
   5.720  0.8083E+01  0.8077E+01  0.6052E+02
   5.730  0.7287E+01  0.7275E+01  0.6068E+02
   5.740  0.6556E+01  0.6548E+01  0.6081E+02
   5.750  0.5969E+01  0.5961E+01  0.6094E+02
   5.760  0.5734E+01  0.5734E+01  0.6105E+02
   5.770  0.5638E+01  0.5638E+01  0.6117E+02
   5.780  0.5555E+01  0.5555E+01  0.6128E+02
   5.790  0.5503E+01  0.5504E+01  0.6139E+02
   5.800  0.5562E+01  0.5564E+01  0.6150E+02
   5.810  0.5655E+01  0.5657E+01  0.6161E+02
   5.820  0.5754E+01  0.5755E+01  0.6173E+02
   5.830  0.5856E+01  0.5858E+01  0.6184E+02
   5.840  0.5959E+01  0.5961E+01  0.6196E+02
   5.850  0.6049E+01  0.6050E+01  0.6208E+02
   5.860  0.6124E+01  0.6126E+01  0.6220E+02
   5.870  0.6185E+01  0.6186E+01  0.6233E+02
   5.880  0.6231E+01  0.6232E+01  0.6245E+02
   5.890  0.6260E+01  0.6260E+01  0.6258E+02
   5.900  0.6251E+01  0.6250E+01  0.6270E+02
   5.910  0.6252E+01  0.6251E+01  0.6283E+02
   5.920  0.6264E+01  0.6263E+01  0.6295E+02
   5.930  0.6247E+01  0.6245E+01  0.6308E+02
   5.940  0.6179E+01  0.6177E+01  0.6320E+02
   5.950  0.6103E+01  0.6101E+01  0.6332E+02
   5.960  0.6022E+01  0.6019E+01  0.6344E+02
   5.970  0.5951E+01  0.5949E+01  0.6356E+02
   5.980  0.5916E+01  0.5914E+01  0.6368E+02
   5.990  0.5917E+01  0.5915E+01  0.6380E+02
   6.000  0.5954E+01  0.5952E+01  0.6392E+02
   6.010  0.6018E+01  0.6016E+01  0.6404E+02
   6.020  0.5891E+01  0.5888E+01  0.6416E+02
   6.030  0.5756E+01  0.5753E+01  0.6427E+02
   6.040  0.5549E+01  0.5546E+01  0.6439E+02
   6.050  0.5472E+01  0.5470E+01  0.6450E+02
   6.060  0.5425E+01  0.5422E+01  0.6461E+02
   6.070  0.5413E+01  0.5412E+01  0.6471E+02
   6.080  0.5420E+01  0.5419E+01  0.6482E+02
   6.090  0.5363E+01  0.5362E+01  0.6493E+02
   6.100  0.5219E+01  0.5218E+01  0.6504E+02
   6.110  0.5035E+01  0.5033E+01  0.6514E+02
   6.120  0.4802E+01  0.4800E+01  0.6524E+02
   6.130  0.4518E+01  0.4515E+01  0.6533E+02
   6.140  0.4196E+01  0.4192E+01  0.6542E+02
   6.150  0.3933E+01  0.3929E+01  0.6550E+02
   6.160  0.3754E+01  0.3749E+01  0.6558E+02
   6.170  0.3396E+01  0.3397E+01  0.6565E+02
   6.180  0.3627E+01  0.3629E+01  0.6572E+02
   6.190  0.4089E+01  0.4097E+01  0.6579E+02
   6.200  0.4934E+01  0.4941E+01  0.6588E+02
   6.210  0.5694E+01  0.5701E+01  0.6599E+02
   6.220  0.6484E+01  0.6496E+01  0.6611E+02
   6.230  0.7648E+01  0.7658E+01  0.6625E+02
   6.240  0.8630E+01  0.8640E+01  0.6642E+02
   6.250  0.9124E+01  0.9132E+01  0.6659E+02
   6.260  0.9234E+01  0.9243E+01  0.6678E+02
   6.270  0.9088E+01  0.9092E+01  0.6696E+02
   6.280  0.9040E+01  0.9047E+01  0.6714E+02
   6.290  0.9134E+01  0.9141E+01  0.6733E+02
   6.300  0.9273E+01  0.9283E+01  0.6751E+02
   6.310  0.9716E+01  0.9727E+01  0.6770E+02
   6.320  0.1021E+02  0.1023E+02  0.6790E+02
   6.330  0.1117E+02  0.1120E+02  0.6811E+02
   6.340  0.9539E+01  0.9469E+01  0.6834E+02
   6.350  0.7094E+01  0.7104E+01  0.6849E+02
   6.360  0.7585E+01  0.7584E+01  0.6864E+02
   6.370  0.7530E+01  0.7528E+01  0.6880E+02
   6.380  0.7454E+01  0.7452E+01  0.6895E+02
   6.390  0.7550E+01  0.7549E+01  0.6910E+02
   6.400  0.7624E+01  0.7623E+01  0.6925E+02
   6.410  0.7684E+01  0.7682E+01  0.6940E+02
   6.420  0.7713E+01  0.7711E+01  0.6955E+02
   6.430  0.7724E+01  0.7722E+01  0.6971E+02
   6.440  0.7973E+01  0.7972E+01  0.6986E+02
   6.450  0.9177E+01  0.9181E+01  0.7003E+02
   6.460  0.9482E+01  0.9484E+01  0.7022E+02
   6.470  0.8879E+01  0.8875E+01  0.7041E+02
   6.480  0.8116E+01  0.8110E+01  0.7058E+02
   6.490  0.7392E+01  0.7385E+01  0.7073E+02
   6.500  0.6507E+01  0.6495E+01  0.7087E+02
   6.510  0.5569E+01  0.5557E+01  0.7099E+02
   6.520  0.4697E+01  0.4687E+01  0.7109E+02
   6.530  0.4151E+01  0.4144E+01  0.7118E+02
   6.540  0.3848E+01  0.3843E+01  0.7126E+02
   6.550  0.3701E+01  0.3699E+01  0.7134E+02
   6.560  0.3687E+01  0.3686E+01  0.7141E+02
   6.570  0.3719E+01  0.3718E+01  0.7149E+02
   6.580  0.3749E+01  0.3748E+01  0.7156E+02
   6.590  0.3732E+01  0.3730E+01  0.7164E+02
   6.600  0.3664E+01  0.3663E+01  0.7171E+02
   6.610  0.3587E+01  0.3586E+01  0.7178E+02
   6.620  0.3521E+01  0.3520E+01  0.7185E+02
   6.630  0.3466E+01  0.3465E+01  0.7192E+02
   6.640  0.3448E+01  0.3449E+01  0.7199E+02
   6.650  0.3551E+01  0.3552E+01  0.7206E+02
   6.660  0.3665E+01  0.3666E+01  0.7213E+02
   6.670  0.3787E+01  0.3787E+01  0.7221E+02
   6.680  0.3911E+01  0.3912E+01  0.7229E+02
   6.690  0.4004E+01  0.4004E+01  0.7236E+02
   6.700  0.4047E+01  0.4047E+01  0.7244E+02
   6.710  0.4056E+01  0.4056E+01  0.7253E+02
   6.720  0.4038E+01  0.4038E+01  0.7261E+02
   6.730  0.4006E+01  0.4006E+01  0.7269E+02
   6.740  0.3974E+01  0.3973E+01  0.7277E+02
   6.750  0.3943E+01  0.3942E+01  0.7285E+02
   6.760  0.3919E+01  0.3918E+01  0.7292E+02
   6.770  0.3900E+01  0.3900E+01  0.7300E+02
   6.780  0.3890E+01  0.3889E+01  0.7308E+02
   6.790  0.3889E+01  0.3889E+01  0.7316E+02
   6.800  0.3898E+01  0.3897E+01  0.7324E+02
   6.810  0.3915E+01  0.3915E+01  0.7331E+02
   6.820  0.3942E+01  0.3942E+01  0.7339E+02
   6.830  0.3976E+01  0.3976E+01  0.7347E+02
   6.840  0.4012E+01  0.4012E+01  0.7355E+02
   6.850  0.4053E+01  0.4053E+01  0.7363E+02
   6.860  0.4115E+01  0.4114E+01  0.7371E+02
   6.870  0.4156E+01  0.4155E+01  0.7380E+02
   6.880  0.4365E+01  0.4366E+01  0.7388E+02
   6.890  0.4835E+01  0.4838E+01  0.7397E+02
   6.900  0.5485E+01  0.5490E+01  0.7408E+02
   6.910  0.6056E+01  0.6058E+01  0.7419E+02
   6.920  0.6346E+01  0.6348E+01  0.7432E+02
   6.930  0.6633E+01  0.6634E+01  0.7445E+02
   6.940  0.6914E+01  0.6915E+01  0.7458E+02
   6.950  0.7025E+01  0.7025E+01  0.7472E+02
   6.960  0.6942E+01  0.6941E+01  0.7486E+02
   6.970  0.6725E+01  0.6724E+01  0.7500E+02
   6.980  0.6475E+01  0.6475E+01  0.7513E+02
   6.990  0.6204E+01  0.6203E+01  0.7526E+02
   7.000  0.6045E+01  0.6045E+01  0.7538E+02
   7.010  0.6033E+01  0.6033E+01  0.7550E+02
   7.020  0.6020E+01  0.6019E+01  0.7562E+02
   7.030  0.5968E+01  0.5966E+01  0.7574E+02
   7.040  0.5771E+01  0.5768E+01  0.7586E+02
   7.050  0.5474E+01  0.5472E+01  0.7597E+02
   7.060  0.5160E+01  0.5158E+01  0.7608E+02
   7.070  0.4888E+01  0.4887E+01  0.7618E+02
   7.080  0.4848E+01  0.4848E+01  0.7627E+02
   7.090  0.4963E+01  0.4964E+01  0.7637E+02
   7.100  0.5161E+01  0.5162E+01  0.7647E+02
   7.110  0.5472E+01  0.5474E+01  0.7658E+02
   7.120  0.5929E+01  0.5931E+01  0.7669E+02
   7.130  0.6441E+01  0.6443E+01  0.7682E+02
   7.140  0.6893E+01  0.6895E+01  0.7695E+02
   7.150  0.7473E+01  0.7474E+01  0.7709E+02
   7.160  0.7502E+01  0.7503E+01  0.7724E+02
   7.170  0.7801E+01  0.7805E+01  0.7740E+02
   7.180  0.8116E+01  0.8119E+01  0.7756E+02
   7.190  0.8137E+01  0.8137E+01  0.7772E+02
   7.200  0.7937E+01  0.7936E+01  0.7788E+02
   7.210  0.7804E+01  0.7803E+01  0.7804E+02
   7.220  0.7711E+01  0.7711E+01  0.7819E+02
   7.230  0.7666E+01  0.7666E+01  0.7835E+02
   7.240  0.7665E+01  0.7665E+01  0.7850E+02
   7.250  0.7714E+01  0.7715E+01  0.7865E+02
   7.260  0.7952E+01  0.7954E+01  0.7881E+02
   7.270  0.7979E+01  0.7977E+01  0.7897E+02
   7.280  0.7770E+01  0.7767E+01  0.7913E+02
   7.290  0.7516E+01  0.7515E+01  0.7928E+02
   7.300  0.7392E+01  0.7391E+01  0.7943E+02
   7.310  0.7334E+01  0.7335E+01  0.7958E+02
   7.320  0.7321E+01  0.7323E+01  0.7972E+02
   7.330  0.7367E+01  0.7370E+01  0.7987E+02
   7.340  0.7475E+01  0.7478E+01  0.8002E+02
   7.350  0.7593E+01  0.7595E+01  0.8017E+02
   7.360  0.7706E+01  0.7709E+01  0.8032E+02
   7.370  0.7834E+01  0.7837E+01  0.8048E+02
   7.380  0.7979E+01  0.7983E+01  0.8063E+02
   7.390  0.8126E+01  0.8129E+01  0.8080E+02
   7.400  0.8262E+01  0.8265E+01  0.8096E+02
   7.410  0.8391E+01  0.8395E+01  0.8113E+02
   7.420  0.8552E+01  0.8556E+01  0.8130E+02
   7.430  0.8713E+01  0.8717E+01  0.8147E+02
   7.440  0.8874E+01  0.8878E+01  0.8164E+02
   7.450  0.9037E+01  0.9041E+01  0.8182E+02
   7.460  0.9206E+01  0.9211E+01  0.8201E+02
   7.470  0.9424E+01  0.9429E+01  0.8219E+02
   7.480  0.9585E+01  0.9590E+01  0.8238E+02
   7.490  0.9782E+01  0.9788E+01  0.8258E+02
   7.500  0.1003E+02  0.1004E+02  0.8277E+02
   7.510  0.1026E+02  0.1027E+02  0.8298E+02
   7.520  0.1048E+02  0.1049E+02  0.8318E+02
   7.530  0.1065E+02  0.1065E+02  0.8340E+02
   7.540  0.1070E+02  0.1070E+02  0.8361E+02
   7.550  0.1063E+02  0.1063E+02  0.8382E+02
   7.560  0.1033E+02  0.1033E+02  0.8403E+02
   7.570  0.1021E+02  0.1021E+02  0.8424E+02
   7.580  0.1011E+02  0.1011E+02  0.8444E+02
   7.590  0.1003E+02  0.1004E+02  0.8464E+02
   7.600  0.1001E+02  0.1001E+02  0.8484E+02
   7.610  0.1002E+02  0.1002E+02  0.8504E+02
   7.620  0.1005E+02  0.1005E+02  0.8524E+02
   7.630  0.1007E+02  0.1007E+02  0.8545E+02
   7.640  0.1012E+02  0.1012E+02  0.8565E+02
   7.650  0.1018E+02  0.1018E+02  0.8585E+02
   7.660  0.1026E+02  0.1026E+02  0.8605E+02
   7.670  0.1018E+02  0.1018E+02  0.8626E+02
   7.680  0.1005E+02  0.1005E+02  0.8646E+02
   7.690  0.9922E+01  0.9920E+01  0.8666E+02
   7.700  0.9787E+01  0.9784E+01  0.8686E+02
   7.710  0.9646E+01  0.9643E+01  0.8705E+02
   7.720  0.9387E+01  0.9381E+01  0.8724E+02
   7.730  0.8947E+01  0.8941E+01  0.8743E+02
   7.740  0.8542E+01  0.8538E+01  0.8760E+02
   7.750  0.8385E+01  0.8384E+01  0.8777E+02
   7.760  0.8173E+01  0.8167E+01  0.8794E+02
   7.770  0.7783E+01  0.7779E+01  0.8810E+02
   7.780  0.7483E+01  0.7479E+01  0.8825E+02
   7.790  0.7213E+01  0.7210E+01  0.8840E+02
   7.800  0.6995E+01  0.6993E+01  0.8854E+02
   7.810  0.6916E+01  0.6917E+01  0.8868E+02
   7.820  0.6942E+01  0.6943E+01  0.8881E+02
   7.830  0.7022E+01  0.7023E+01  0.8895E+02
   7.840  0.7139E+01  0.7140E+01  0.8910E+02
   7.850  0.7292E+01  0.7294E+01  0.8924E+02
   7.860  0.7478E+01  0.7480E+01  0.8939E+02
   7.870  0.7656E+01  0.7657E+01  0.8954E+02
   7.880  0.7825E+01  0.7826E+01  0.8969E+02
   7.890  0.7966E+01  0.7966E+01  0.8985E+02
   7.900  0.8068E+01  0.8067E+01  0.9001E+02
   7.910  0.8141E+01  0.8139E+01  0.9017E+02
   7.920  0.8260E+01  0.8258E+01  0.9034E+02
   7.930  0.8434E+01  0.8432E+01  0.9051E+02
   7.940  0.8639E+01  0.8637E+01  0.9068E+02
   7.950  0.8896E+01  0.8893E+01  0.9085E+02
   7.960  0.8461E+01  0.8458E+01  0.9103E+02
   7.970  0.8273E+01  0.8280E+01  0.9119E+02
   7.980  0.8313E+01  0.8314E+01  0.9136E+02
   7.990  0.8160E+01  0.8161E+01  0.9152E+02
   8.000  0.7981E+01  0.7982E+01  0.9168E+02
   8.010  0.7836E+01  0.7837E+01  0.9184E+02
   8.020  0.7764E+01  0.7766E+01  0.9200E+02
   8.030  0.7691E+01  0.7694E+01  0.9215E+02
   8.040  0.7602E+01  0.7605E+01  0.9231E+02
   8.050  0.7498E+01  0.7502E+01  0.9246E+02
   8.060  0.7378E+01  0.7383E+01  0.9261E+02
   8.070  0.7205E+01  0.7210E+01  0.9275E+02
   8.080  0.6823E+01  0.6826E+01  0.9289E+02
   8.090  0.6501E+01  0.6504E+01  0.9303E+02
   8.100  0.6216E+01  0.6219E+01  0.9315E+02
   8.110  0.5934E+01  0.5936E+01  0.9327E+02
   8.120  0.5682E+01  0.5683E+01  0.9339E+02
   8.130  0.5461E+01  0.5461E+01  0.9350E+02
   8.140  0.5222E+01  0.5221E+01  0.9361E+02
   8.150  0.5004E+01  0.5002E+01  0.9371E+02
   8.160  0.4840E+01  0.4841E+01  0.9381E+02
   8.170  0.4770E+01  0.4773E+01  0.9390E+02
   8.180  0.4722E+01  0.4724E+01  0.9400E+02
   8.190  0.4687E+01  0.4689E+01  0.9409E+02
   8.200  0.4673E+01  0.4676E+01  0.9419E+02
   8.210  0.4675E+01  0.4677E+01  0.9428E+02
   8.220  0.4687E+01  0.4689E+01  0.9437E+02
   8.230  0.4709E+01  0.4711E+01  0.9447E+02
   8.240  0.4740E+01  0.4742E+01  0.9456E+02
   8.250  0.4792E+01  0.4794E+01  0.9466E+02
   8.260  0.4868E+01  0.4869E+01  0.9475E+02
   8.270  0.4946E+01  0.4947E+01  0.9485E+02
   8.280  0.5009E+01  0.5009E+01  0.9495E+02
   8.290  0.5014E+01  0.5011E+01  0.9505E+02
   8.300  0.4967E+01  0.4963E+01  0.9515E+02
   8.310  0.4890E+01  0.4885E+01  0.9525E+02
   8.320  0.4804E+01  0.4800E+01  0.9535E+02
   8.330  0.4742E+01  0.4738E+01  0.9544E+02
   8.340  0.4698E+01  0.4696E+01  0.9554E+02
   8.350  0.4854E+01  0.4862E+01  0.9563E+02
   8.360  0.5228E+01  0.5233E+01  0.9573E+02
   8.370  0.5431E+01  0.5438E+01  0.9584E+02
   8.380  0.5592E+01  0.5598E+01  0.9595E+02
   8.390  0.5717E+01  0.5723E+01  0.9606E+02
   8.400  0.5814E+01  0.5820E+01  0.9618E+02
   8.410  0.5763E+01  0.5754E+01  0.9630E+02
   8.420  0.5067E+01  0.5026E+01  0.9641E+02
   8.430  0.3357E+01  0.3356E+01  0.9649E+02
   8.440  0.3271E+01  0.3275E+01  0.9656E+02
   8.450  0.3290E+01  0.3294E+01  0.9662E+02
   8.460  0.3325E+01  0.3329E+01  0.9669E+02
   8.470  0.3375E+01  0.3379E+01  0.9675E+02
   8.480  0.3440E+01  0.3445E+01  0.9682E+02
   8.490  0.3533E+01  0.3538E+01  0.9689E+02
   8.500  0.3666E+01  0.3672E+01  0.9696E+02
   8.510  0.3848E+01  0.3855E+01  0.9704E+02
   8.520  0.4082E+01  0.4089E+01  0.9712E+02
   8.530  0.4368E+01  0.4376E+01  0.9720E+02
   8.540  0.4709E+01  0.4718E+01  0.9729E+02
   8.550  0.5102E+01  0.5113E+01  0.9739E+02
   8.560  0.5517E+01  0.5532E+01  0.9750E+02
   8.570  0.5688E+01  0.5679E+01  0.9761E+02
   8.580  0.5543E+01  0.5543E+01  0.9772E+02
   8.590  0.5494E+01  0.5499E+01  0.9783E+02
   8.600  0.5522E+01  0.5532E+01  0.9794E+02
   8.610  0.5652E+01  0.5668E+01  0.9806E+02
   8.620  0.5877E+01  0.5900E+01  0.9817E+02
   8.630  0.6272E+01  0.6339E+01  0.9829E+02
   8.640  0.6657E+01  0.6659E+01  0.9842E+02
   8.650  0.6519E+01  0.6518E+01  0.9856E+02
   8.660  0.6312E+01  0.6308E+01  0.9868E+02
   8.670  0.6036E+01  0.6029E+01  0.9881E+02
   8.680  0.5657E+01  0.5650E+01  0.9893E+02
   8.690  0.5577E+01  0.5576E+01  0.9904E+02
   8.700  0.5526E+01  0.5526E+01  0.9915E+02
   8.710  0.5504E+01  0.5505E+01  0.9926E+02
   8.720  0.5535E+01  0.5538E+01  0.9937E+02
   8.730  0.5617E+01  0.5621E+01  0.9948E+02
   8.740  0.5749E+01  0.5755E+01  0.9959E+02
   8.750  0.5980E+01  0.5988E+01  0.9971E+02
   8.760  0.6095E+01  0.6101E+01  0.9983E+02
   8.770  0.6221E+01  0.6226E+01  0.9996E+02
   8.780  0.6317E+01  0.6319E+01  0.1001E+03
   8.790  0.6380E+01  0.6382E+01  0.1002E+03
   8.800  0.6413E+01  0.6412E+01  0.1003E+03
   8.810  0.6413E+01  0.6411E+01  0.1005E+03
   8.820  0.6380E+01  0.6376E+01  0.1006E+03
   8.830  0.6315E+01  0.6310E+01  0.1007E+03
   8.840  0.6226E+01  0.6220E+01  0.1008E+03
   8.850  0.6115E+01  0.6108E+01  0.1010E+03
   8.860  0.5984E+01  0.5977E+01  0.1011E+03
   8.870  0.5833E+01  0.5825E+01  0.1012E+03
   8.880  0.5664E+01  0.5655E+01  0.1013E+03
   8.890  0.5488E+01  0.5482E+01  0.1014E+03
   8.900  0.5357E+01  0.5352E+01  0.1015E+03
   8.910  0.5608E+01  0.5624E+01  0.1017E+03
   8.920  0.5933E+01  0.5950E+01  0.1018E+03
   8.930  0.6264E+01  0.6280E+01  0.1019E+03
   8.940  0.6600E+01  0.6615E+01  0.1020E+03
   8.950  0.6940E+01  0.6951E+01  0.1022E+03
   8.960  0.6479E+01  0.6434E+01  0.1023E+03
   8.970  0.5838E+01  0.5808E+01  0.1024E+03
   8.980  0.5438E+01  0.5434E+01  0.1025E+03
   8.990  0.5436E+01  0.5431E+01  0.1026E+03
   9.000  0.5423E+01  0.5418E+01  0.1027E+03
   9.010  0.5408E+01  0.5402E+01  0.1028E+03
   9.020  0.4808E+01  0.4771E+01  0.1030E+03
   9.030  0.4121E+01  0.4119E+01  0.1030E+03
   9.040  0.4098E+01  0.4097E+01  0.1031E+03
   9.050  0.4076E+01  0.4076E+01  0.1032E+03
   9.060  0.4054E+01  0.4054E+01  0.1033E+03
   9.070  0.4032E+01  0.4032E+01  0.1034E+03
   9.080  0.4010E+01  0.4010E+01  0.1034E+03
   9.090  0.3990E+01  0.3990E+01  0.1035E+03
   9.100  0.3984E+01  0.3985E+01  0.1036E+03
   9.110  0.3992E+01  0.3994E+01  0.1037E+03
   9.120  0.4002E+01  0.4004E+01  0.1038E+03
   9.130  0.4015E+01  0.4017E+01  0.1038E+03
   9.140  0.4031E+01  0.4034E+01  0.1039E+03
   9.150  0.4050E+01  0.4052E+01  0.1040E+03
   9.160  0.4068E+01  0.4070E+01  0.1041E+03
   9.170  0.4085E+01  0.4088E+01  0.1042E+03
   9.180  0.4089E+01  0.4091E+01  0.1043E+03
   9.190  0.4086E+01  0.4088E+01  0.1043E+03
   9.200  0.4083E+01  0.4085E+01  0.1044E+03
   9.210  0.4078E+01  0.4080E+01  0.1045E+03
   9.220  0.4058E+01  0.4059E+01  0.1046E+03
   9.230  0.3962E+01  0.3956E+01  0.1047E+03
   9.240  0.3925E+01  0.3929E+01  0.1047E+03
   9.250  0.3933E+01  0.3937E+01  0.1048E+03
   9.260  0.3941E+01  0.3946E+01  0.1049E+03
   9.270  0.3946E+01  0.3950E+01  0.1050E+03
   9.280  0.3939E+01  0.3942E+01  0.1051E+03
   9.290  0.3889E+01  0.3888E+01  0.1051E+03
   9.300  0.3781E+01  0.3772E+01  0.1052E+03
   9.310  0.3622E+01  0.3611E+01  0.1053E+03
   9.320  0.3473E+01  0.3463E+01  0.1054E+03
   9.330  0.3349E+01  0.3340E+01  0.1054E+03
   9.340  0.3230E+01  0.3221E+01  0.1055E+03
   9.350  0.3136E+01  0.3128E+01  0.1055E+03
   9.360  0.3048E+01  0.3040E+01  0.1056E+03
   9.370  0.2959E+01  0.2951E+01  0.1057E+03
   9.380  0.2869E+01  0.2862E+01  0.1057E+03
   9.390  0.2779E+01  0.2772E+01  0.1058E+03
   9.400  0.2689E+01  0.2681E+01  0.1058E+03
   9.410  0.2597E+01  0.2590E+01  0.1059E+03
   9.420  0.2505E+01  0.2498E+01  0.1059E+03
   9.430  0.2414E+01  0.2406E+01  0.1060E+03
   9.440  0.2322E+01  0.2314E+01  0.1060E+03
   9.450  0.2230E+01  0.2222E+01  0.1061E+03
   9.460  0.2138E+01  0.2130E+01  0.1061E+03
   9.470  0.2046E+01  0.2038E+01  0.1062E+03
   9.480  0.1954E+01  0.1946E+01  0.1062E+03
   9.490  0.1886E+01  0.1884E+01  0.1062E+03
   9.500  0.1858E+01  0.1856E+01  0.1063E+03
   9.510  0.1829E+01  0.1828E+01  0.1063E+03
   9.520  0.1801E+01  0.1800E+01  0.1064E+03
   9.530  0.1773E+01  0.1772E+01  0.1064E+03
   9.540  0.1745E+01  0.1744E+01  0.1064E+03
   9.550  0.1718E+01  0.1717E+01  0.1065E+03
   9.560  0.1695E+01  0.1693E+01  0.1065E+03
   9.570  0.1675E+01  0.1673E+01  0.1065E+03
   9.580  0.1655E+01  0.1654E+01  0.1066E+03
   9.590  0.1636E+01  0.1635E+01  0.1066E+03
   9.600  0.1617E+01  0.1616E+01  0.1066E+03
   9.610  0.1598E+01  0.1597E+01  0.1067E+03
   9.620  0.1578E+01  0.1577E+01  0.1067E+03
   9.630  0.1559E+01  0.1558E+01  0.1067E+03
   9.640  0.1540E+01  0.1539E+01  0.1068E+03
   9.650  0.1521E+01  0.1520E+01  0.1068E+03
   9.660  0.1501E+01  0.1501E+01  0.1068E+03
   9.670  0.1482E+01  0.1481E+01  0.1068E+03
   9.680  0.1464E+01  0.1464E+01  0.1069E+03
   9.690  0.1456E+01  0.1455E+01  0.1069E+03
   9.700  0.1450E+01  0.1449E+01  0.1069E+03
   9.710  0.1444E+01  0.1443E+01  0.1070E+03
   9.720  0.1437E+01  0.1437E+01  0.1070E+03
   9.730  0.1431E+01  0.1431E+01  0.1070E+03
   9.740  0.1425E+01  0.1425E+01  0.1071E+03
   9.750  0.1419E+01  0.1418E+01  0.1071E+03
   9.760  0.1413E+01  0.1412E+01  0.1071E+03
   9.770  0.1406E+01  0.1406E+01  0.1071E+03
   9.780  0.1400E+01  0.1400E+01  0.1072E+03
   9.790  0.1394E+01  0.1394E+01  0.1072E+03
   9.800  0.1388E+01  0.1387E+01  0.1072E+03
   9.810  0.1382E+01  0.1381E+01  0.1072E+03
   9.820  0.1376E+01  0.1375E+01  0.1073E+03
   9.830  0.1369E+01  0.1369E+01  0.1073E+03
   9.840  0.1363E+01  0.1363E+01  0.1073E+03
   9.850  0.1357E+01  0.1357E+01  0.1074E+03
   9.860  0.1351E+01  0.1350E+01  0.1074E+03
   9.870  0.1345E+01  0.1344E+01  0.1074E+03
   9.880  0.1338E+01  0.1338E+01  0.1074E+03
   9.890  0.1332E+01  0.1332E+01  0.1075E+03
   9.900  0.1326E+01  0.1326E+01  0.1075E+03
   9.910  0.1320E+01  0.1319E+01  0.1075E+03
   9.920  0.1314E+01  0.1313E+01  0.1075E+03
   9.930  0.1307E+01  0.1307E+01  0.1076E+03
   9.940  0.1301E+01  0.1301E+01  0.1076E+03
   9.950  0.1295E+01  0.1295E+01  0.1076E+03
   9.960  0.1289E+01  0.1288E+01  0.1076E+03
   9.970  0.1283E+01  0.1282E+01  0.1077E+03
   9.980  0.1276E+01  0.1276E+01  0.1077E+03
   9.990  0.1270E+01  0.1270E+01  0.1077E+03
  10.000  0.1264E+01  0.1264E+01  0.1078E+03
  10.010  0.1258E+01  0.1257E+01  0.1078E+03
  10.020  0.1252E+01  0.1251E+01  0.1078E+03
  10.030  0.1243E+01  0.1242E+01  0.1078E+03
  10.040  0.1221E+01  0.1221E+01  0.1079E+03
  10.050  0.1195E+01  0.1195E+01  0.1079E+03
  10.060  0.1168E+01  0.1168E+01  0.1079E+03
  10.070  0.1142E+01  0.1142E+01  0.1079E+03
  10.080  0.1115E+01  0.1115E+01  0.1079E+03
  10.090  0.1089E+01  0.1088E+01  0.1080E+03
  10.100  0.1073E+01  0.1073E+01  0.1080E+03
  10.110  0.1067E+01  0.1067E+01  0.1080E+03
  10.120  0.1061E+01  0.1061E+01  0.1080E+03
  10.130  0.1055E+01  0.1055E+01  0.1081E+03
  10.140  0.1049E+01  0.1049E+01  0.1081E+03
  10.150  0.1043E+01  0.1043E+01  0.1081E+03
  10.160  0.1037E+01  0.1037E+01  0.1081E+03
  10.170  0.1031E+01  0.1031E+01  0.1081E+03
  10.180  0.1025E+01  0.1025E+01  0.1082E+03
  10.190  0.1018E+01  0.1018E+01  0.1082E+03
  10.200  0.1006E+01  0.1006E+01  0.1082E+03
  10.210  0.9881E+00  0.9879E+00  0.1082E+03
  10.220  0.9644E+00  0.9642E+00  0.1082E+03
  10.230  0.9348E+00  0.9345E+00  0.1083E+03
  10.240  0.9014E+00  0.9012E+00  0.1083E+03
  10.250  0.8805E+00  0.8804E+00  0.1083E+03
  10.260  0.8745E+00  0.8745E+00  0.1083E+03
  10.270  0.8689E+00  0.8688E+00  0.1083E+03
  10.280  0.8632E+00  0.8632E+00  0.1083E+03
  10.290  0.8576E+00  0.8575E+00  0.1084E+03
  10.300  0.8519E+00  0.8519E+00  0.1084E+03
  10.310  0.8463E+00  0.8463E+00  0.1084E+03
  10.320  0.8407E+00  0.8406E+00  0.1084E+03
  10.330  0.8350E+00  0.8350E+00  0.1084E+03
  10.340  0.8294E+00  0.8293E+00  0.1084E+03
  10.350  0.8237E+00  0.8237E+00  0.1085E+03
  10.360  0.8181E+00  0.8181E+00  0.1085E+03
  10.370  0.8125E+00  0.8124E+00  0.1085E+03
  10.380  0.8068E+00  0.8068E+00  0.1085E+03
  10.390  0.8012E+00  0.8011E+00  0.1085E+03
  10.400  0.7955E+00  0.7955E+00  0.1085E+03
  10.410  0.7899E+00  0.7899E+00  0.1086E+03
  10.420  0.7843E+00  0.7842E+00  0.1086E+03
  10.430  0.7786E+00  0.7786E+00  0.1086E+03
  10.440  0.7730E+00  0.7730E+00  0.1086E+03
  10.450  0.7674E+00  0.7673E+00  0.1086E+03
  10.460  0.7617E+00  0.7617E+00  0.1086E+03
  10.470  0.7561E+00  0.7561E+00  0.1087E+03
  10.480  0.7505E+00  0.7504E+00  0.1087E+03
  10.490  0.7449E+00  0.7448E+00  0.1087E+03
  10.500  0.7392E+00  0.7392E+00  0.1087E+03
  10.510  0.7348E+00  0.7348E+00  0.1087E+03
  10.520  0.7372E+00  0.7374E+00  0.1087E+03
  10.530  0.7467E+00  0.7470E+00  0.1087E+03
  10.540  0.7618E+00  0.7622E+00  0.1088E+03
  10.550  0.7808E+00  0.7813E+00  0.1088E+03
  10.560  0.8026E+00  0.8032E+00  0.1088E+03
  10.570  0.8277E+00  0.8283E+00  0.1088E+03
  10.580  0.8525E+00  0.8530E+00  0.1088E+03
  10.590  0.8725E+00  0.8729E+00  0.1088E+03
  10.600  0.8902E+00  0.8906E+00  0.1089E+03
  10.610  0.9052E+00  0.9056E+00  0.1089E+03
  10.620  0.9172E+00  0.9175E+00  0.1089E+03
  10.630  0.9261E+00  0.9263E+00  0.1089E+03
  10.640  0.9319E+00  0.9320E+00  0.1089E+03
  10.650  0.9353E+00  0.9354E+00  0.1089E+03
  10.660  0.9369E+00  0.9369E+00  0.1090E+03
  10.670  0.9364E+00  0.9364E+00  0.1090E+03
  10.680  0.9341E+00  0.9340E+00  0.1090E+03
  10.690  0.9297E+00  0.9297E+00  0.1090E+03
  10.700  0.9241E+00  0.9240E+00  0.1090E+03
  10.710  0.9184E+00  0.9183E+00  0.1091E+03
  10.720  0.9127E+00  0.9126E+00  0.1091E+03
  10.730  0.9070E+00  0.9069E+00  0.1091E+03
  10.740  0.9014E+00  0.9013E+00  0.1091E+03
  10.750  0.8957E+00  0.8956E+00  0.1091E+03
  10.760  0.8900E+00  0.8899E+00  0.1091E+03
  10.770  0.8843E+00  0.8842E+00  0.1092E+03
  10.780  0.8786E+00  0.8785E+00  0.1092E+03
  10.790  0.8730E+00  0.8729E+00  0.1092E+03
  10.800  0.8673E+00  0.8672E+00  0.1092E+03
  10.810  0.8616E+00  0.8615E+00  0.1092E+03
  10.820  0.8559E+00  0.8558E+00  0.1093E+03
  10.830  0.8503E+00  0.8502E+00  0.1093E+03
  10.840  0.8446E+00  0.8445E+00  0.1093E+03
  10.850  0.8389E+00  0.8388E+00  0.1093E+03
  10.860  0.8332E+00  0.8332E+00  0.1093E+03
  10.870  0.8276E+00  0.8275E+00  0.1093E+03
  10.880  0.8219E+00  0.8218E+00  0.1094E+03
  10.890  0.8162E+00  0.8162E+00  0.1094E+03
  10.900  0.8106E+00  0.8105E+00  0.1094E+03
  10.910  0.8049E+00  0.8048E+00  0.1094E+03
  10.920  0.7993E+00  0.7992E+00  0.1094E+03
  10.930  0.7936E+00  0.7935E+00  0.1094E+03
  10.940  0.7879E+00  0.7878E+00  0.1095E+03
  10.950  0.7823E+00  0.7822E+00  0.1095E+03
  10.960  0.7766E+00  0.7765E+00  0.1095E+03
  10.970  0.7710E+00  0.7709E+00  0.1095E+03
  10.980  0.7653E+00  0.7652E+00  0.1095E+03
  10.990  0.7597E+00  0.7596E+00  0.1095E+03
  11.000  0.7541E+00  0.7540E+00  0.1095E+03
  11.010  0.7486E+00  0.7485E+00  0.1096E+03
  11.020  0.7432E+00  0.7431E+00  0.1096E+03
  11.030  0.7378E+00  0.7378E+00  0.1096E+03
  11.040  0.7326E+00  0.7325E+00  0.1096E+03
  11.050  0.7275E+00  0.7274E+00  0.1096E+03
  11.060  0.7224E+00  0.7223E+00  0.1096E+03
  11.070  0.7174E+00  0.7174E+00  0.1096E+03
  11.080  0.7126E+00  0.7125E+00  0.1097E+03
  11.090  0.7078E+00  0.7077E+00  0.1097E+03
  11.100  0.7031E+00  0.7030E+00  0.1097E+03
  11.110  0.6985E+00  0.6984E+00  0.1097E+03
  11.120  0.6940E+00  0.6939E+00  0.1097E+03
  11.130  0.6895E+00  0.6895E+00  0.1097E+03
  11.140  0.6852E+00  0.6851E+00  0.1097E+03
  11.150  0.6810E+00  0.6809E+00  0.1098E+03
  11.160  0.6770E+00  0.6769E+00  0.1098E+03
  11.170  0.6733E+00  0.6732E+00  0.1098E+03
  11.180  0.6699E+00  0.6698E+00  0.1098E+03
  11.190  0.6670E+00  0.6670E+00  0.1098E+03
  11.200  0.6657E+00  0.6657E+00  0.1098E+03
  11.210  0.6647E+00  0.6646E+00  0.1098E+03
  11.220  0.6639E+00  0.6638E+00  0.1099E+03
  11.230  0.6633E+00  0.6633E+00  0.1099E+03
  11.240  0.6630E+00  0.6630E+00  0.1099E+03
  11.250  0.6198E+00  0.6174E+00  0.1099E+03
  11.260  0.5786E+00  0.5782E+00  0.1099E+03
  11.270  0.5443E+00  0.5438E+00  0.1099E+03
  11.280  0.5099E+00  0.5094E+00  0.1099E+03
  11.290  0.4756E+00  0.4750E+00  0.1099E+03
  11.300  0.4411E+00  0.4406E+00  0.1099E+03
  11.310  0.4067E+00  0.4061E+00  0.1100E+03
  11.320  0.3722E+00  0.3716E+00  0.1100E+03
  11.330  0.3377E+00  0.3370E+00  0.1100E+03
  11.340  0.3012E+00  0.3005E+00  0.1100E+03
  11.350  0.2647E+00  0.2640E+00  0.1100E+03
  11.360  0.2284E+00  0.2277E+00  0.1100E+03
  11.370  0.1923E+00  0.1916E+00  0.1100E+03
  11.380  0.1564E+00  0.1557E+00  0.1100E+03
  11.390  0.1209E+00  0.1202E+00  0.1100E+03
  11.400  0.8941E-01  0.8885E-01  0.1100E+03
  11.410  0.6251E-01  0.6197E-01  0.1100E+03
  11.420  0.3488E-01  0.3436E-01  0.1100E+03
  11.430  0.1369E-01  0.1337E-01  0.1100E+03
  11.440  0.2235E-02  0.2105E-02  0.1100E+03
  11.450  0.0000E+00  0.0000E+00  0.1100E+03
  11.460  0.0000E+00  0.0000E+00  0.1100E+03
  11.470  0.0000E+00  0.0000E+00  0.1100E+03
  11.480  0.0000E+00  0.0000E+00  0.1100E+03
  11.490  0.0000E+00  0.0000E+00  0.1100E+03
  11.500  0.0000E+00  0.0000E+00  0.1100E+03
  11.510  0.0000E+00  0.0000E+00  0.1100E+03
  11.520  0.0000E+00  0.0000E+00  0.1100E+03
  11.530  0.0000E+00  0.0000E+00  0.1100E+03
  11.540  0.0000E+00  0.0000E+00  0.1100E+03
  11.550  0.0000E+00  0.0000E+00  0.1100E+03
  11.560  0.0000E+00  0.0000E+00  0.1100E+03
  11.570  0.0000E+00  0.0000E+00  0.1100E+03
  11.580  0.0000E+00  0.0000E+00  0.1100E+03
  11.590  0.0000E+00  0.0000E+00  0.1100E+03
  11.600  0.0000E+00  0.0000E+00  0.1100E+03
  11.610  0.0000E+00  0.0000E+00  0.1100E+03
  11.620  0.0000E+00  0.0000E+00  0.1100E+03
  11.630  0.0000E+00  0.0000E+00  0.1100E+03
  11.640  0.0000E+00  0.0000E+00  0.1100E+03
  11.650  0.0000E+00  0.0000E+00  0.1100E+03
  11.660  0.0000E+00  0.0000E+00  0.1100E+03
  11.670  0.0000E+00  0.0000E+00  0.1100E+03
  11.680  0.0000E+00  0.0000E+00  0.1100E+03
  11.690  0.0000E+00  0.0000E+00  0.1100E+03
  11.700  0.0000E+00  0.0000E+00  0.1100E+03
  11.710  0.0000E+00  0.0000E+00  0.1100E+03
  11.720  0.0000E+00  0.0000E+00  0.1100E+03
  11.730  0.0000E+00  0.0000E+00  0.1100E+03
  11.740  0.0000E+00  0.0000E+00  0.1100E+03
  11.750  0.0000E+00  0.0000E+00  0.1100E+03
  11.760  0.0000E+00  0.0000E+00  0.1100E+03
  11.770  0.0000E+00  0.0000E+00  0.1100E+03
  11.780  0.0000E+00  0.0000E+00  0.1100E+03
  11.790  0.0000E+00  0.0000E+00  0.1100E+03
  11.800  0.0000E+00  0.0000E+00  0.1100E+03
  11.810  0.0000E+00  0.0000E+00  0.1100E+03
  11.820  0.0000E+00  0.0000E+00  0.1100E+03
  11.830  0.0000E+00  0.0000E+00  0.1100E+03
  11.840  0.0000E+00  0.0000E+00  0.1100E+03
  11.850  0.1037E-03  0.1039E-03  0.1100E+03
  11.860  0.4269E-03  0.4274E-03  0.1100E+03
  11.870  0.9699E-03  0.9706E-03  0.1100E+03
  11.880  0.1732E-02  0.1733E-02  0.1100E+03
  11.890  0.2715E-02  0.2716E-02  0.1100E+03
  11.900  0.3917E-02  0.3918E-02  0.1100E+03
  11.910  0.5338E-02  0.5340E-02  0.1100E+03
  11.920  0.6980E-02  0.6982E-02  0.1100E+03
  11.930  0.8842E-02  0.8844E-02  0.1100E+03
  11.940  0.1092E-01  0.1093E-01  0.1100E+03
  11.950  0.1323E-01  0.1323E-01  0.1100E+03
  11.960  0.1575E-01  0.1575E-01  0.1100E+03
  11.970  0.1849E-01  0.1850E-01  0.1100E+03
  11.980  0.2146E-01  0.2146E-01  0.1100E+03
  11.990  0.2464E-01  0.2464E-01  0.1100E+03
  12.000  0.2791E-01  0.2791E-01  0.1100E+03
  12.010  0.3118E-01  0.3118E-01  0.1100E+03
  12.020  0.3445E-01  0.3446E-01  0.1100E+03
  12.030  0.3772E-01  0.3773E-01  0.1100E+03
  12.040  0.4099E-01  0.4100E-01  0.1100E+03
  12.050  0.4427E-01  0.4427E-01  0.1100E+03
  12.060  0.4754E-01  0.4754E-01  0.1100E+03
  12.070  0.5081E-01  0.5082E-01  0.1100E+03
  12.080  0.5409E-01  0.5409E-01  0.1100E+03
  12.090  0.5736E-01  0.5736E-01  0.1100E+03
  12.100  0.6063E-01  0.6064E-01  0.1100E+03
  12.110  0.6391E-01  0.6391E-01  0.1100E+03
  12.120  0.6718E-01  0.6719E-01  0.1100E+03
  12.130  0.7046E-01  0.7046E-01  0.1100E+03
  12.140  0.7373E-01  0.7374E-01  0.1100E+03
  12.150  0.7701E-01  0.7701E-01  0.1100E+03
  12.160  0.8028E-01  0.8029E-01  0.1100E+03
  12.170  0.8356E-01  0.8357E-01  0.1100E+03
  12.180  0.8684E-01  0.8684E-01  0.1100E+03
  12.190  0.9012E-01  0.9012E-01  0.1100E+03
  12.200  0.9339E-01  0.9340E-01  0.1100E+03
  12.210  0.9667E-01  0.9667E-01  0.1100E+03
  12.220  0.9995E-01  0.9995E-01  0.1100E+03
  12.230  0.1032E+00  0.1032E+00  0.1100E+03
  12.240  0.1065E+00  0.1065E+00  0.1100E+03
  12.250  0.1098E+00  0.1098E+00  0.1100E+03
  12.260  0.1131E+00  0.1131E+00  0.1100E+03
  12.270  0.1163E+00  0.1163E+00  0.1100E+03
  12.280  0.1196E+00  0.1196E+00  0.1100E+03
  12.290  0.1229E+00  0.1229E+00  0.1100E+03
  12.300  0.1262E+00  0.1262E+00  0.1100E+03
  12.310  0.1295E+00  0.1295E+00  0.1101E+03
  12.320  0.1327E+00  0.1328E+00  0.1101E+03
  12.330  0.1360E+00  0.1360E+00  0.1101E+03
  12.340  0.1393E+00  0.1393E+00  0.1101E+03
  12.350  0.1426E+00  0.1426E+00  0.1101E+03
  12.360  0.1460E+00  0.1460E+00  0.1101E+03
  12.370  0.1496E+00  0.1496E+00  0.1101E+03
  12.380  0.1537E+00  0.1537E+00  0.1101E+03
  12.390  0.1580E+00  0.1580E+00  0.1101E+03
  12.400  0.1627E+00  0.1627E+00  0.1101E+03
  12.410  0.1677E+00  0.1677E+00  0.1101E+03
  12.420  0.1730E+00  0.1730E+00  0.1101E+03
  12.430  0.1787E+00  0.1787E+00  0.1101E+03
  12.440  0.1847E+00  0.1847E+00  0.1101E+03
  12.450  0.1910E+00  0.1910E+00  0.1101E+03
  12.460  0.1977E+00  0.1977E+00  0.1101E+03
  12.470  0.2046E+00  0.2047E+00  0.1101E+03
  12.480  0.2120E+00  0.2120E+00  0.1101E+03
  12.490  0.2196E+00  0.2196E+00  0.1101E+03
  12.500  0.2277E+00  0.2277E+00  0.1101E+03
  12.510  0.2363E+00  0.2364E+00  0.1101E+03
  12.520  0.2457E+00  0.2457E+00  0.1101E+03
  12.530  0.2556E+00  0.2557E+00  0.1101E+03
  12.540  0.2663E+00  0.2663E+00  0.1101E+03
  12.550  0.2775E+00  0.2776E+00  0.1101E+03
  12.560  0.2895E+00  0.2895E+00  0.1101E+03
  12.570  0.3020E+00  0.3021E+00  0.1102E+03
  12.580  0.3152E+00  0.3153E+00  0.1102E+03
  12.590  0.3291E+00  0.3292E+00  0.1102E+03
  12.600  0.3436E+00  0.3437E+00  0.1102E+03
  12.610  0.3588E+00  0.3588E+00  0.1102E+03
  12.620  0.3741E+00  0.3741E+00  0.1102E+03
  12.630  0.3894E+00  0.3895E+00  0.1102E+03
  12.640  0.4048E+00  0.4048E+00  0.1102E+03
  12.650  0.4202E+00  0.4202E+00  0.1102E+03
  12.660  0.4356E+00  0.4356E+00  0.1102E+03
  12.670  0.4510E+00  0.4511E+00  0.1102E+03
  12.680  0.4665E+00  0.4665E+00  0.1102E+03
  12.690  0.4820E+00  0.4820E+00  0.1102E+03
  12.700  0.4996E+00  0.4996E+00  0.1103E+03
  12.710  0.5212E+00  0.5212E+00  0.1103E+03
  12.720  0.5428E+00  0.5428E+00  0.1103E+03
  12.730  0.5644E+00  0.5645E+00  0.1103E+03
  12.740  0.5861E+00  0.5861E+00  0.1103E+03
  12.750  0.6078E+00  0.6078E+00  0.1103E+03
  12.760  0.6295E+00  0.6295E+00  0.1103E+03
  12.770  0.6512E+00  0.6512E+00  0.1103E+03
  12.780  0.6729E+00  0.6730E+00  0.1104E+03
  12.790  0.6947E+00  0.6948E+00  0.1104E+03
  12.800  0.7165E+00  0.7165E+00  0.1104E+03
  12.810  0.7383E+00  0.7384E+00  0.1104E+03
  12.820  0.7602E+00  0.7602E+00  0.1104E+03
  12.830  0.7820E+00  0.7820E+00  0.1104E+03
  12.840  0.8039E+00  0.8039E+00  0.1104E+03
  12.850  0.8258E+00  0.8258E+00  0.1105E+03
  12.860  0.8477E+00  0.8478E+00  0.1105E+03
  12.870  0.8697E+00  0.8697E+00  0.1105E+03
  12.880  0.9047E+00  0.9049E+00  0.1105E+03
  12.890  0.1035E+01  0.1036E+01  0.1105E+03
  12.900  0.1174E+01  0.1174E+01  0.1105E+03
  12.910  0.1311E+01  0.1311E+01  0.1106E+03
  12.920  0.1448E+01  0.1449E+01  0.1106E+03
  12.930  0.1591E+01  0.1591E+01  0.1106E+03
  12.940  0.1750E+01  0.1750E+01  0.1107E+03
  12.950  0.1912E+01  0.1912E+01  0.1107E+03
  12.960  0.2073E+01  0.2074E+01  0.1107E+03
  12.970  0.2235E+01  0.2236E+01  0.1108E+03
  12.980  0.2397E+01  0.2397E+01  0.1108E+03
  12.990  0.2607E+01  0.2607E+01  0.1109E+03
  13.000  0.2733E+01  0.2733E+01  0.1109E+03
  13.010  0.2803E+01  0.2803E+01  0.1110E+03
  13.020  0.2820E+01  0.2820E+01  0.1110E+03
  13.030  0.2790E+01  0.2790E+01  0.1111E+03
  13.040  0.2716E+01  0.2716E+01  0.1112E+03
  13.050  0.2616E+01  0.2616E+01  0.1112E+03
  13.060  0.2517E+01  0.2516E+01  0.1113E+03
  13.070  0.2417E+01  0.2417E+01  0.1113E+03
  13.080  0.2319E+01  0.2318E+01  0.1114E+03
  13.090  0.2220E+01  0.2220E+01  0.1114E+03
  13.100  0.2122E+01  0.2122E+01  0.1114E+03
  13.110  0.2024E+01  0.2024E+01  0.1115E+03
  13.120  0.1926E+01  0.1926E+01  0.1115E+03
  13.130  0.1829E+01  0.1829E+01  0.1116E+03
  13.140  0.1732E+01  0.1732E+01  0.1116E+03
  13.150  0.1636E+01  0.1636E+01  0.1116E+03
  13.160  0.1553E+01  0.1553E+01  0.1117E+03
  13.170  0.1488E+01  0.1488E+01  0.1117E+03
  13.180  0.1443E+01  0.1443E+01  0.1117E+03
  13.190  0.1411E+01  0.1411E+01  0.1118E+03
  13.200  0.1390E+01  0.1390E+01  0.1118E+03
  13.210  0.1380E+01  0.1380E+01  0.1118E+03
  13.220  0.1377E+01  0.1377E+01  0.1118E+03
  13.230  0.1376E+01  0.1376E+01  0.1119E+03
  13.240  0.1374E+01  0.1374E+01  0.1119E+03
  13.250  0.1372E+01  0.1372E+01  0.1119E+03
  13.260  0.1370E+01  0.1370E+01  0.1119E+03
  13.270  0.1368E+01  0.1368E+01  0.1120E+03
  13.280  0.1368E+01  0.1368E+01  0.1120E+03
  13.290  0.1370E+01  0.1370E+01  0.1120E+03
  13.300  0.1376E+01  0.1376E+01  0.1121E+03
  13.310  0.1385E+01  0.1385E+01  0.1121E+03
  13.320  0.1396E+01  0.1396E+01  0.1121E+03
  13.330  0.1412E+01  0.1412E+01  0.1121E+03
  13.340  0.1430E+01  0.1430E+01  0.1122E+03
  13.350  0.1453E+01  0.1453E+01  0.1122E+03
  13.360  0.1478E+01  0.1479E+01  0.1122E+03
  13.370  0.1508E+01  0.1508E+01  0.1123E+03
  13.380  0.1538E+01  0.1539E+01  0.1123E+03
  13.390  0.1569E+01  0.1569E+01  0.1123E+03
  13.400  0.1600E+01  0.1600E+01  0.1124E+03
  13.410  0.1631E+01  0.1631E+01  0.1124E+03
  13.420  0.1662E+01  0.1663E+01  0.1124E+03
  13.430  0.1694E+01  0.1694E+01  0.1124E+03
  13.440  0.1726E+01  0.1726E+01  0.1125E+03
  13.450  0.1757E+01  0.1758E+01  0.1125E+03
  13.460  0.1789E+01  0.1789E+01  0.1126E+03
  13.470  0.1819E+01  0.1820E+01  0.1126E+03
  13.480  0.1850E+01  0.1850E+01  0.1126E+03
  13.490  0.1890E+01  0.1890E+01  0.1127E+03
  13.500  0.1959E+01  0.1960E+01  0.1127E+03
  13.510  0.2094E+01  0.2095E+01  0.1127E+03
  13.520  0.2258E+01  0.2258E+01  0.1128E+03
  13.530  0.2406E+01  0.2406E+01  0.1128E+03
  13.540  0.2515E+01  0.2516E+01  0.1129E+03
  13.550  0.2585E+01  0.2585E+01  0.1129E+03
  13.560  0.2635E+01  0.2635E+01  0.1130E+03
  13.570  0.2650E+01  0.2650E+01  0.1130E+03
  13.580  0.2622E+01  0.2622E+01  0.1131E+03
  13.590  0.2549E+01  0.2549E+01  0.1131E+03
  13.600  0.2440E+01  0.2440E+01  0.1132E+03
  13.610  0.2330E+01  0.2329E+01  0.1132E+03
  13.620  0.2220E+01  0.2219E+01  0.1133E+03
  13.630  0.2111E+01  0.2110E+01  0.1133E+03
  13.640  0.2003E+01  0.2003E+01  0.1134E+03
  13.650  0.1897E+01  0.1897E+01  0.1134E+03
  13.660  0.1793E+01  0.1793E+01  0.1134E+03
  13.670  0.1692E+01  0.1691E+01  0.1135E+03
  13.680  0.1592E+01  0.1592E+01  0.1135E+03
  13.690  0.1497E+01  0.1497E+01  0.1135E+03
  13.700  0.1420E+01  0.1420E+01  0.1136E+03
  13.710  0.1363E+01  0.1363E+01  0.1136E+03
  13.720  0.1326E+01  0.1326E+01  0.1136E+03
  13.730  0.1308E+01  0.1308E+01  0.1137E+03
  13.740  0.1302E+01  0.1301E+01  0.1137E+03
  13.750  0.1296E+01  0.1296E+01  0.1137E+03
  13.760  0.1292E+01  0.1292E+01  0.1137E+03
  13.770  0.1288E+01  0.1288E+01  0.1138E+03
  13.780  0.1286E+01  0.1286E+01  0.1138E+03
  13.790  0.1295E+01  0.1295E+01  0.1138E+03
  13.800  0.1320E+01  0.1320E+01  0.1138E+03
  13.810  0.1356E+01  0.1356E+01  0.1139E+03
  13.820  0.1395E+01  0.1395E+01  0.1139E+03
  13.830  0.1435E+01  0.1435E+01  0.1139E+03
  13.840  0.1474E+01  0.1474E+01  0.1139E+03
  13.850  0.1514E+01  0.1514E+01  0.1140E+03
  13.860  0.1554E+01  0.1554E+01  0.1140E+03
  13.870  0.1594E+01  0.1594E+01  0.1140E+03
  13.880  0.1635E+01  0.1635E+01  0.1141E+03
  13.890  0.1676E+01  0.1676E+01  0.1141E+03
  13.900  0.1717E+01  0.1717E+01  0.1141E+03
  13.910  0.1758E+01  0.1758E+01  0.1142E+03
  13.920  0.1799E+01  0.1799E+01  0.1142E+03
  13.930  0.1840E+01  0.1840E+01  0.1142E+03
  13.940  0.1881E+01  0.1881E+01  0.1143E+03
  13.950  0.1922E+01  0.1922E+01  0.1143E+03
  13.960  0.1962E+01  0.1962E+01  0.1144E+03
  13.970  0.2003E+01  0.2003E+01  0.1144E+03
  13.980  0.2044E+01  0.2044E+01  0.1144E+03
  13.990  0.2085E+01  0.2085E+01  0.1145E+03
  14.000  0.2126E+01  0.2126E+01  0.1145E+03
  14.010  0.2166E+01  0.2166E+01  0.1146E+03
  14.020  0.2207E+01  0.2207E+01  0.1146E+03
  14.030  0.2248E+01  0.2248E+01  0.1147E+03
  14.040  0.2288E+01  0.2288E+01  0.1147E+03
  14.050  0.2325E+01  0.2325E+01  0.1147E+03
  14.060  0.2358E+01  0.2358E+01  0.1148E+03
  14.070  0.2389E+01  0.2389E+01  0.1148E+03
  14.080  0.2417E+01  0.2416E+01  0.1149E+03
  14.090  0.2441E+01  0.2441E+01  0.1149E+03
  14.100  0.2464E+01  0.2464E+01  0.1150E+03
  14.110  0.2486E+01  0.2486E+01  0.1150E+03
  14.120  0.2507E+01  0.2507E+01  0.1151E+03
  14.130  0.2526E+01  0.2526E+01  0.1151E+03
  14.140  0.2545E+01  0.2545E+01  0.1152E+03
  14.150  0.2563E+01  0.2563E+01  0.1152E+03
  14.160  0.2586E+01  0.2586E+01  0.1153E+03
  14.170  0.2631E+01  0.2631E+01  0.1153E+03
  14.180  0.2699E+01  0.2699E+01  0.1154E+03
  14.190  0.2792E+01  0.2792E+01  0.1154E+03
  14.200  0.2910E+01  0.2910E+01  0.1155E+03
  14.210  0.3023E+01  0.3024E+01  0.1156E+03
  14.220  0.3048E+01  0.3048E+01  0.1156E+03
  14.230  0.3103E+01  0.3103E+01  0.1157E+03
  14.240  0.3246E+01  0.3245E+01  0.1158E+03
  14.250  0.2780E+01  0.2780E+01  0.1158E+03
  14.260  0.2407E+01  0.2407E+01  0.1159E+03
  14.270  0.2173E+01  0.2173E+01  0.1159E+03
  14.280  0.2056E+01  0.2056E+01  0.1160E+03
  14.290  0.1961E+01  0.1960E+01  0.1160E+03
  14.300  0.1848E+01  0.1848E+01  0.1160E+03
  14.310  0.1722E+01  0.1721E+01  0.1161E+03
  14.320  0.1599E+01  0.1599E+01  0.1161E+03
  14.330  0.1511E+01  0.1510E+01  0.1161E+03
  14.340  0.1455E+01  0.1455E+01  0.1162E+03
  14.350  0.1436E+01  0.1436E+01  0.1162E+03
  14.360  0.1427E+01  0.1427E+01  0.1162E+03
  14.370  0.1418E+01  0.1418E+01  0.1162E+03
  14.380  0.1409E+01  0.1409E+01  0.1163E+03
  14.390  0.1401E+01  0.1401E+01  0.1163E+03
  14.400  0.1394E+01  0.1394E+01  0.1163E+03
  14.410  0.1387E+01  0.1387E+01  0.1164E+03
  14.420  0.1379E+01  0.1379E+01  0.1164E+03
  14.430  0.1372E+01  0.1372E+01  0.1164E+03
  14.440  0.1364E+01  0.1364E+01  0.1164E+03
  14.450  0.1356E+01  0.1356E+01  0.1165E+03
  14.460  0.1349E+01  0.1349E+01  0.1165E+03
  14.470  0.1341E+01  0.1341E+01  0.1165E+03
  14.480  0.1335E+01  0.1335E+01  0.1165E+03
  14.490  0.1336E+01  0.1336E+01  0.1166E+03
  14.500  0.1342E+01  0.1342E+01  0.1166E+03
  14.510  0.1352E+01  0.1352E+01  0.1166E+03
  14.520  0.1376E+01  0.1376E+01  0.1167E+03
  14.530  0.1413E+01  0.1413E+01  0.1167E+03
  14.540  0.1452E+01  0.1452E+01  0.1167E+03
  14.550  0.1492E+01  0.1492E+01  0.1167E+03
  14.560  0.1531E+01  0.1531E+01  0.1168E+03
  14.570  0.1569E+01  0.1569E+01  0.1168E+03
  14.580  0.1605E+01  0.1606E+01  0.1168E+03
  14.590  0.1640E+01  0.1640E+01  0.1169E+03
  14.600  0.1672E+01  0.1672E+01  0.1169E+03
  14.610  0.1692E+01  0.1692E+01  0.1169E+03
  14.620  0.1702E+01  0.1702E+01  0.1170E+03
  14.630  0.1708E+01  0.1708E+01  0.1170E+03
  14.640  0.1712E+01  0.1712E+01  0.1170E+03
  14.650  0.1714E+01  0.1714E+01  0.1171E+03
  14.660  0.1712E+01  0.1712E+01  0.1171E+03
  14.670  0.1708E+01  0.1708E+01  0.1171E+03
  14.680  0.1702E+01  0.1702E+01  0.1172E+03
  14.690  0.1704E+01  0.1704E+01  0.1172E+03
  14.700  0.1724E+01  0.1724E+01  0.1172E+03
  14.710  0.1742E+01  0.1742E+01  0.1173E+03
  14.720  0.1755E+01  0.1755E+01  0.1173E+03
  14.730  0.1763E+01  0.1763E+01  0.1173E+03
  14.740  0.1772E+01  0.1772E+01  0.1174E+03
  14.750  0.1782E+01  0.1782E+01  0.1174E+03
  14.760  0.1792E+01  0.1792E+01  0.1175E+03
  14.770  0.1803E+01  0.1803E+01  0.1175E+03
  14.780  0.1814E+01  0.1814E+01  0.1175E+03
  14.790  0.1827E+01  0.1827E+01  0.1176E+03
  14.800  0.1845E+01  0.1846E+01  0.1176E+03
  14.810  0.1869E+01  0.1869E+01  0.1176E+03
  14.820  0.1898E+01  0.1898E+01  0.1177E+03
  14.830  0.1932E+01  0.1932E+01  0.1177E+03
  14.840  0.1972E+01  0.1972E+01  0.1178E+03
  14.850  0.2010E+01  0.2010E+01  0.1178E+03
  14.860  0.2044E+01  0.2044E+01  0.1178E+03
  14.870  0.2077E+01  0.2077E+01  0.1179E+03
  14.880  0.2110E+01  0.2110E+01  0.1179E+03
  14.890  0.2143E+01  0.2143E+01  0.1180E+03
  14.900  0.2176E+01  0.2176E+01  0.1180E+03
  14.910  0.2209E+01  0.2209E+01  0.1180E+03
  14.920  0.2241E+01  0.2241E+01  0.1181E+03
  14.930  0.2272E+01  0.2272E+01  0.1181E+03
  14.940  0.2301E+01  0.2301E+01  0.1182E+03
  14.950  0.2330E+01  0.2330E+01  0.1182E+03
  14.960  0.2358E+01  0.2358E+01  0.1183E+03
  14.970  0.2385E+01  0.2385E+01  0.1183E+03
  14.980  0.2410E+01  0.2410E+01  0.1184E+03
  14.990  0.2434E+01  0.2434E+01  0.1184E+03
  15.000  0.2455E+01  0.2455E+01  0.1185E+03
  15.010  0.2473E+01  0.2473E+01  0.1185E+03
  15.020  0.2488E+01  0.2488E+01  0.1186E+03
  15.030  0.2499E+01  0.2499E+01  0.1186E+03
  15.040  0.2504E+01  0.2504E+01  0.1187E+03
  15.050  0.2506E+01  0.2506E+01  0.1187E+03
  15.060  0.2505E+01  0.2505E+01  0.1188E+03
  15.070  0.2501E+01  0.2501E+01  0.1188E+03
  15.080  0.2494E+01  0.2495E+01  0.1189E+03
  15.090  0.2489E+01  0.2489E+01  0.1189E+03
  15.100  0.2484E+01  0.2484E+01  0.1190E+03
  15.110  0.2479E+01  0.2479E+01  0.1190E+03
  15.120  0.2475E+01  0.2475E+01  0.1191E+03
  15.130  0.2472E+01  0.2472E+01  0.1191E+03
  15.140  0.2469E+01  0.2469E+01  0.1192E+03
  15.150  0.2467E+01  0.2467E+01  0.1192E+03
  15.160  0.2467E+01  0.2467E+01  0.1193E+03
  15.170  0.2474E+01  0.2474E+01  0.1193E+03
  15.180  0.2491E+01  0.2491E+01  0.1194E+03
  15.190  0.2515E+01  0.2515E+01  0.1194E+03
  15.200  0.2549E+01  0.2549E+01  0.1195E+03
  15.210  0.2591E+01  0.2591E+01  0.1195E+03
  15.220  0.2641E+01  0.2641E+01  0.1196E+03
  15.230  0.2693E+01  0.2693E+01  0.1196E+03
  15.240  0.2748E+01  0.2748E+01  0.1197E+03
  15.250  0.2805E+01  0.2805E+01  0.1197E+03
  15.260  0.2864E+01  0.2865E+01  0.1198E+03
  15.270  0.2927E+01  0.2927E+01  0.1198E+03
  15.280  0.2987E+01  0.2987E+01  0.1199E+03
  15.290  0.3020E+01  0.3020E+01  0.1200E+03
  15.300  0.3043E+01  0.3043E+01  0.1200E+03
  15.310  0.3063E+01  0.3063E+01  0.1201E+03
  15.320  0.3076E+01  0.3076E+01  0.1201E+03
  15.330  0.3082E+01  0.3082E+01  0.1202E+03
  15.340  0.3081E+01  0.3081E+01  0.1203E+03
  15.350  0.3073E+01  0.3073E+01  0.1203E+03
  15.360  0.3058E+01  0.3058E+01  0.1204E+03
  15.370  0.3040E+01  0.3040E+01  0.1205E+03
  15.380  0.3024E+01  0.3024E+01  0.1205E+03
  15.390  0.3012E+01  0.3012E+01  0.1206E+03
  15.400  0.3004E+01  0.3004E+01  0.1206E+03
  15.410  0.3000E+01  0.3000E+01  0.1207E+03
  15.420  0.3011E+01  0.3011E+01  0.1208E+03
  15.430  0.3044E+01  0.3044E+01  0.1208E+03
  15.440  0.3086E+01  0.3086E+01  0.1209E+03
  15.450  0.3127E+01  0.3127E+01  0.1209E+03
  15.460  0.3167E+01  0.3167E+01  0.1210E+03
  15.470  0.3206E+01  0.3206E+01  0.1211E+03
  15.480  0.3245E+01  0.3245E+01  0.1211E+03
  15.490  0.3282E+01  0.3283E+01  0.1212E+03
  15.500  0.3317E+01  0.3317E+01  0.1213E+03
  15.510  0.3342E+01  0.3342E+01  0.1213E+03
  15.520  0.3375E+01  0.3376E+01  0.1214E+03
  15.530  0.3412E+01  0.3413E+01  0.1215E+03
  15.540  0.3459E+01  0.3459E+01  0.1215E+03
  15.550  0.3515E+01  0.3516E+01  0.1216E+03
  15.560  0.3580E+01  0.3580E+01  0.1217E+03
  15.570  0.3651E+01  0.3652E+01  0.1217E+03
  15.580  0.3682E+01  0.3682E+01  0.1218E+03
  15.590  0.3731E+01  0.3731E+01  0.1219E+03
  15.600  0.3786E+01  0.3786E+01  0.1220E+03
  15.610  0.3815E+01  0.3815E+01  0.1220E+03
  15.620  0.3817E+01  0.3817E+01  0.1221E+03
  15.630  0.3811E+01  0.3811E+01  0.1222E+03
  15.640  0.3808E+01  0.3808E+01  0.1223E+03
  15.650  0.3813E+01  0.3813E+01  0.1223E+03
  15.660  0.3838E+01  0.3838E+01  0.1224E+03
  15.670  0.3914E+01  0.3915E+01  0.1225E+03
  15.680  0.4063E+01  0.4064E+01  0.1226E+03
  15.690  0.4285E+01  0.4286E+01  0.1227E+03
  15.700  0.4520E+01  0.4520E+01  0.1228E+03
  15.710  0.4399E+01  0.4398E+01  0.1228E+03
  15.720  0.4467E+01  0.4467E+01  0.1229E+03
  15.730  0.4647E+01  0.4648E+01  0.1230E+03
  15.740  0.4811E+01  0.4811E+01  0.1231E+03
  15.750  0.4940E+01  0.4940E+01  0.1232E+03
  15.760  0.5059E+01  0.5059E+01  0.1233E+03
  15.770  0.5162E+01  0.5163E+01  0.1234E+03
  15.780  0.5250E+01  0.5250E+01  0.1235E+03
  15.790  0.5317E+01  0.5317E+01  0.1236E+03
  15.800  0.5345E+01  0.5345E+01  0.1237E+03
  15.810  0.5355E+01  0.5356E+01  0.1238E+03
  15.820  0.5356E+01  0.5356E+01  0.1239E+03
  15.830  0.5346E+01  0.5347E+01  0.1241E+03
  15.840  0.5284E+01  0.5284E+01  0.1242E+03
  15.850  0.4956E+01  0.4953E+01  0.1243E+03
  15.860  0.4173E+01  0.4171E+01  0.1244E+03
  15.870  0.3644E+01  0.3643E+01  0.1244E+03
  15.880  0.3548E+01  0.3548E+01  0.1245E+03
  15.890  0.3570E+01  0.3571E+01  0.1246E+03
  15.900  0.3618E+01  0.3618E+01  0.1246E+03
  15.910  0.3671E+01  0.3671E+01  0.1247E+03
  15.920  0.3727E+01  0.3728E+01  0.1248E+03
  15.930  0.3806E+01  0.3806E+01  0.1249E+03
  15.940  0.3913E+01  0.3914E+01  0.1249E+03
  15.950  0.4054E+01  0.4054E+01  0.1250E+03
  15.960  0.4236E+01  0.4236E+01  0.1251E+03
  15.970  0.4437E+01  0.4437E+01  0.1252E+03
  15.980  0.4631E+01  0.4632E+01  0.1253E+03
  15.990  0.4799E+01  0.4799E+01  0.1254E+03
  16.000  0.4978E+01  0.4979E+01  0.1255E+03
  16.010  0.5179E+01  0.5180E+01  0.1256E+03
  16.020  0.5401E+01  0.5402E+01  0.1257E+03
  16.030  0.5411E+01  0.5410E+01  0.1258E+03
  16.040  0.5224E+01  0.5224E+01  0.1259E+03
  16.050  0.5185E+01  0.5185E+01  0.1260E+03
  16.060  0.5098E+01  0.5097E+01  0.1261E+03
  16.070  0.4950E+01  0.4950E+01  0.1262E+03
  16.080  0.4766E+01  0.4766E+01  0.1263E+03
  16.090  0.4586E+01  0.4585E+01  0.1264E+03
  16.100  0.4399E+01  0.4398E+01  0.1265E+03
  16.110  0.4194E+01  0.4193E+01  0.1266E+03
  16.120  0.3886E+01  0.3885E+01  0.1267E+03
  16.130  0.3598E+01  0.3597E+01  0.1267E+03
  16.140  0.3328E+01  0.3327E+01  0.1268E+03
  16.150  0.3077E+01  0.3077E+01  0.1269E+03
  16.160  0.2848E+01  0.2847E+01  0.1269E+03
  16.170  0.2641E+01  0.2640E+01  0.1270E+03
  16.180  0.2458E+01  0.2458E+01  0.1270E+03
  16.190  0.2324E+01  0.2324E+01  0.1271E+03
  16.200  0.2305E+01  0.2305E+01  0.1271E+03
  16.210  0.2281E+01  0.2280E+01  0.1272E+03
  16.220  0.2257E+01  0.2257E+01  0.1272E+03
  16.230  0.2245E+01  0.2245E+01  0.1273E+03
  16.240  0.2234E+01  0.2234E+01  0.1273E+03
  16.250  0.2223E+01  0.2223E+01  0.1273E+03
  16.260  0.2211E+01  0.2211E+01  0.1274E+03
  16.270  0.2200E+01  0.2200E+01  0.1274E+03
  16.280  0.2188E+01  0.2188E+01  0.1275E+03
  16.290  0.2174E+01  0.2174E+01  0.1275E+03
  16.300  0.2154E+01  0.2154E+01  0.1276E+03
  16.310  0.2112E+01  0.2112E+01  0.1276E+03
  16.320  0.2045E+01  0.2044E+01  0.1276E+03
  16.330  0.1953E+01  0.1953E+01  0.1277E+03
  16.340  0.1837E+01  0.1837E+01  0.1277E+03
  16.350  0.1704E+01  0.1703E+01  0.1278E+03
  16.360  0.1571E+01  0.1571E+01  0.1278E+03
  16.370  0.1440E+01  0.1440E+01  0.1278E+03
  16.380  0.1266E+01  0.1265E+01  0.1279E+03
  16.390  0.1098E+01  0.1098E+01  0.1279E+03
  16.400  0.9518E+00  0.9515E+00  0.1279E+03
  16.410  0.8234E+00  0.8232E+00  0.1279E+03
  16.420  0.7126E+00  0.7124E+00  0.1279E+03
  16.430  0.6122E+00  0.6120E+00  0.1279E+03
  16.440  0.5187E+00  0.5186E+00  0.1280E+03
  16.450  0.4321E+00  0.4320E+00  0.1280E+03
  16.460  0.3524E+00  0.3523E+00  0.1280E+03
  16.470  0.2824E+00  0.2823E+00  0.1280E+03
  16.480  0.2263E+00  0.2262E+00  0.1280E+03
  16.490  0.1841E+00  0.1840E+00  0.1280E+03
  16.500  0.1514E+00  0.1513E+00  0.1280E+03
  16.510  0.1218E+00  0.1217E+00  0.1280E+03
  16.520  0.9549E-01  0.9539E-01  0.1280E+03
  16.530  0.7235E-01  0.7226E-01  0.1280E+03
  16.540  0.5242E-01  0.5234E-01  0.1280E+03
  16.550  0.3570E-01  0.3562E-01  0.1280E+03
  16.560  0.2217E-01  0.2211E-01  0.1280E+03
  16.570  0.1186E-01  0.1181E-01  0.1280E+03
  16.580  0.4742E-02  0.4709E-02  0.1280E+03
  16.590  0.8316E-03  0.8168E-03  0.1280E+03
  16.600  0.0000E+00  0.0000E+00  0.1280E+03
  16.610  0.0000E+00  0.0000E+00  0.1280E+03
  16.620  0.0000E+00  0.0000E+00  0.1280E+03
  16.630  0.0000E+00  0.0000E+00  0.1280E+03
  16.640  0.0000E+00  0.0000E+00  0.1280E+03
  16.650  0.0000E+00  0.0000E+00  0.1280E+03
  16.660  0.0000E+00  0.0000E+00  0.1280E+03
  16.670  0.0000E+00  0.0000E+00  0.1280E+03
  16.680  0.0000E+00  0.0000E+00  0.1280E+03
  16.690  0.0000E+00  0.0000E+00  0.1280E+03
  16.700  0.0000E+00  0.0000E+00  0.1280E+03
  16.710  0.0000E+00  0.0000E+00  0.1280E+03
  16.720  0.0000E+00  0.0000E+00  0.1280E+03
  16.730  0.0000E+00  0.0000E+00  0.1280E+03
  16.740  0.0000E+00  0.0000E+00  0.1280E+03
  16.750  0.0000E+00  0.0000E+00  0.1280E+03
  16.760  0.0000E+00  0.0000E+00  0.1280E+03
  16.770  0.0000E+00  0.0000E+00  0.1280E+03
  16.780  0.0000E+00  0.0000E+00  0.1280E+03
  16.790  0.0000E+00  0.0000E+00  0.1280E+03
  16.800  0.0000E+00  0.0000E+00  0.1280E+03
  16.810  0.0000E+00  0.0000E+00  0.1280E+03
  16.820  0.0000E+00  0.0000E+00  0.1280E+03
  16.830  0.0000E+00  0.0000E+00  0.1280E+03
  16.840  0.0000E+00  0.0000E+00  0.1280E+03
  16.850  0.0000E+00  0.0000E+00  0.1280E+03
  16.860  0.0000E+00  0.0000E+00  0.1280E+03
  16.870  0.0000E+00  0.0000E+00  0.1280E+03
  16.880  0.0000E+00  0.0000E+00  0.1280E+03
  16.890  0.0000E+00  0.0000E+00  0.1280E+03
  16.900  0.0000E+00  0.0000E+00  0.1280E+03
  16.910  0.0000E+00  0.0000E+00  0.1280E+03
  16.920  0.0000E+00  0.0000E+00  0.1280E+03
  16.930  0.0000E+00  0.0000E+00  0.1280E+03
  16.940  0.0000E+00  0.0000E+00  0.1280E+03
  16.950  0.0000E+00  0.0000E+00  0.1280E+03
  16.960  0.0000E+00  0.0000E+00  0.1280E+03
  16.970  0.0000E+00  0.0000E+00  0.1280E+03
  16.980  0.0000E+00  0.0000E+00  0.1280E+03
  16.990  0.0000E+00  0.0000E+00  0.1280E+03
  17.000  0.0000E+00  0.0000E+00  0.1280E+03
  17.010  0.0000E+00  0.0000E+00  0.1280E+03
  17.020  0.0000E+00  0.0000E+00  0.1280E+03
  17.030  0.0000E+00  0.0000E+00  0.1280E+03
  17.040  0.0000E+00  0.0000E+00  0.1280E+03
  17.050  0.0000E+00  0.0000E+00  0.1280E+03
  17.060  0.0000E+00  0.0000E+00  0.1280E+03
  17.070  0.0000E+00  0.0000E+00  0.1280E+03
  17.080  0.0000E+00  0.0000E+00  0.1280E+03
  17.090  0.0000E+00  0.0000E+00  0.1280E+03
  17.100  0.0000E+00  0.0000E+00  0.1280E+03
  17.110  0.0000E+00  0.0000E+00  0.1280E+03
  17.120  0.0000E+00  0.0000E+00  0.1280E+03
  17.130  0.0000E+00  0.0000E+00  0.1280E+03
  17.140  0.0000E+00  0.0000E+00  0.1280E+03
  17.150  0.0000E+00  0.0000E+00  0.1280E+03
  17.160  0.0000E+00  0.0000E+00  0.1280E+03
  17.170  0.0000E+00  0.0000E+00  0.1280E+03
  17.180  0.0000E+00  0.0000E+00  0.1280E+03
  17.190  0.0000E+00  0.0000E+00  0.1280E+03
  17.200  0.0000E+00  0.0000E+00  0.1280E+03
  17.210  0.0000E+00  0.0000E+00  0.1280E+03
  17.220  0.0000E+00  0.0000E+00  0.1280E+03
  17.230  0.0000E+00  0.0000E+00  0.1280E+03
  17.240  0.0000E+00  0.0000E+00  0.1280E+03
  17.250  0.0000E+00  0.0000E+00  0.1280E+03
  17.260  0.0000E+00  0.0000E+00  0.1280E+03
  17.270  0.0000E+00  0.0000E+00  0.1280E+03
  17.280  0.0000E+00  0.0000E+00  0.1280E+03
  17.290  0.0000E+00  0.0000E+00  0.1280E+03
  17.300  0.0000E+00  0.0000E+00  0.1280E+03
  17.310  0.0000E+00  0.0000E+00  0.1280E+03
  17.320  0.0000E+00  0.0000E+00  0.1280E+03
  17.330  0.0000E+00  0.0000E+00  0.1280E+03
  17.340  0.0000E+00  0.0000E+00  0.1280E+03
  17.350  0.0000E+00  0.0000E+00  0.1280E+03
  17.360  0.0000E+00  0.0000E+00  0.1280E+03
  17.370  0.0000E+00  0.0000E+00  0.1280E+03
  17.380  0.0000E+00  0.0000E+00  0.1280E+03
  17.390  0.0000E+00  0.0000E+00  0.1280E+03
  17.400  0.0000E+00  0.0000E+00  0.1280E+03
  17.410  0.0000E+00  0.0000E+00  0.1280E+03
  17.420  0.0000E+00  0.0000E+00  0.1280E+03
  17.430  0.0000E+00  0.0000E+00  0.1280E+03
  17.440  0.0000E+00  0.0000E+00  0.1280E+03
  17.450  0.0000E+00  0.0000E+00  0.1280E+03
  17.460  0.0000E+00  0.0000E+00  0.1280E+03
  17.470  0.0000E+00  0.0000E+00  0.1280E+03
  17.480  0.0000E+00  0.0000E+00  0.1280E+03
  17.490  0.0000E+00  0.0000E+00  0.1280E+03
  17.500  0.0000E+00  0.0000E+00  0.1280E+03
  17.510  0.0000E+00  0.0000E+00  0.1280E+03
  17.520  0.0000E+00  0.0000E+00  0.1280E+03
  17.530  0.0000E+00  0.0000E+00  0.1280E+03
  17.540  0.0000E+00  0.0000E+00  0.1280E+03
  17.550  0.0000E+00  0.0000E+00  0.1280E+03
  17.560  0.0000E+00  0.0000E+00  0.1280E+03
  17.570  0.0000E+00  0.0000E+00  0.1280E+03
  17.580  0.0000E+00  0.0000E+00  0.1280E+03
  17.590  0.0000E+00  0.0000E+00  0.1280E+03
  17.600  0.0000E+00  0.0000E+00  0.1280E+03
  17.610  0.0000E+00  0.0000E+00  0.1280E+03
  17.620  0.0000E+00  0.0000E+00  0.1280E+03
  17.630  0.0000E+00  0.0000E+00  0.1280E+03
  17.640  0.0000E+00  0.0000E+00  0.1280E+03
  17.650  0.0000E+00  0.0000E+00  0.1280E+03
  17.660  0.0000E+00  0.0000E+00  0.1280E+03
  17.670  0.0000E+00  0.0000E+00  0.1280E+03
  17.680  0.0000E+00  0.0000E+00  0.1280E+03
  17.690  0.0000E+00  0.0000E+00  0.1280E+03
  17.700  0.0000E+00  0.0000E+00  0.1280E+03
  17.710  0.0000E+00  0.0000E+00  0.1280E+03
  17.720  0.0000E+00  0.0000E+00  0.1280E+03
  17.730  0.0000E+00  0.0000E+00  0.1280E+03
  17.740  0.0000E+00  0.0000E+00  0.1280E+03
  17.750  0.0000E+00  0.0000E+00  0.1280E+03
  17.760  0.0000E+00  0.0000E+00  0.1280E+03
  17.770  0.0000E+00  0.0000E+00  0.1280E+03
  17.780  0.0000E+00  0.0000E+00  0.1280E+03
  17.790  0.0000E+00  0.0000E+00  0.1280E+03
  17.800  0.0000E+00  0.0000E+00  0.1280E+03
  17.810  0.0000E+00  0.0000E+00  0.1280E+03
  17.820  0.0000E+00  0.0000E+00  0.1280E+03
  17.830  0.0000E+00  0.0000E+00  0.1280E+03
  17.840  0.0000E+00  0.0000E+00  0.1280E+03
  17.850  0.0000E+00  0.0000E+00  0.1280E+03
  17.860  0.0000E+00  0.0000E+00  0.1280E+03
  17.870  0.0000E+00  0.0000E+00  0.1280E+03
  17.880  0.0000E+00  0.0000E+00  0.1280E+03
  17.890  0.0000E+00  0.0000E+00  0.1280E+03
  17.900  0.0000E+00  0.0000E+00  0.1280E+03
  17.910  0.0000E+00  0.0000E+00  0.1280E+03
  17.920  0.0000E+00  0.0000E+00  0.1280E+03
  17.930  0.0000E+00  0.0000E+00  0.1280E+03
  17.940  0.0000E+00  0.0000E+00  0.1280E+03
  17.950  0.0000E+00  0.0000E+00  0.1280E+03
  17.960  0.0000E+00  0.0000E+00  0.1280E+03
  17.970  0.0000E+00  0.0000E+00  0.1280E+03
  17.980  0.0000E+00  0.0000E+00  0.1280E+03
  17.990  0.0000E+00  0.0000E+00  0.1280E+03
  18.000  0.0000E+00  0.0000E+00  0.1280E+03
  18.010  0.0000E+00  0.0000E+00  0.1280E+03
  18.020  0.0000E+00  0.0000E+00  0.1280E+03
  18.030  0.0000E+00  0.0000E+00  0.1280E+03
  18.040  0.0000E+00  0.0000E+00  0.1280E+03
  18.050  0.0000E+00  0.0000E+00  0.1280E+03
  18.060  0.0000E+00  0.0000E+00  0.1280E+03
  18.070  0.0000E+00  0.0000E+00  0.1280E+03
  18.080  0.0000E+00  0.0000E+00  0.1280E+03
  18.090  0.0000E+00  0.0000E+00  0.1280E+03
  18.100  0.0000E+00  0.0000E+00  0.1280E+03
  18.110  0.0000E+00  0.0000E+00  0.1280E+03
  18.120  0.0000E+00  0.0000E+00  0.1280E+03
  18.130  0.0000E+00  0.0000E+00  0.1280E+03
  18.140  0.0000E+00  0.0000E+00  0.1280E+03
  18.150  0.0000E+00  0.0000E+00  0.1280E+03
  18.160  0.0000E+00  0.0000E+00  0.1280E+03
  18.170  0.0000E+00  0.0000E+00  0.1280E+03
  18.180  0.0000E+00  0.0000E+00  0.1280E+03
  18.190  0.0000E+00  0.0000E+00  0.1280E+03
  18.200  0.0000E+00  0.0000E+00  0.1280E+03
  18.210  0.0000E+00  0.0000E+00  0.1280E+03
  18.220  0.0000E+00  0.0000E+00  0.1280E+03
  18.230  0.0000E+00  0.0000E+00  0.1280E+03
  18.240  0.0000E+00  0.0000E+00  0.1280E+03
  18.250  0.0000E+00  0.0000E+00  0.1280E+03
  18.260  0.0000E+00  0.0000E+00  0.1280E+03
  18.270  0.0000E+00  0.0000E+00  0.1280E+03
  18.280  0.0000E+00  0.0000E+00  0.1280E+03
  18.290  0.0000E+00  0.0000E+00  0.1280E+03
  18.300  0.0000E+00  0.0000E+00  0.1280E+03
  18.310  0.0000E+00  0.0000E+00  0.1280E+03
  18.320  0.0000E+00  0.0000E+00  0.1280E+03
  18.330  0.0000E+00  0.0000E+00  0.1280E+03
  18.340  0.0000E+00  0.0000E+00  0.1280E+03
  18.350  0.0000E+00  0.0000E+00  0.1280E+03
  18.360  0.0000E+00  0.0000E+00  0.1280E+03
  18.370  0.0000E+00  0.0000E+00  0.1280E+03
  18.380  0.0000E+00  0.0000E+00  0.1280E+03
  18.390  0.0000E+00  0.0000E+00  0.1280E+03
  18.400  0.0000E+00  0.0000E+00  0.1280E+03
  18.410  0.0000E+00  0.0000E+00  0.1280E+03
  18.420  0.0000E+00  0.0000E+00  0.1280E+03
  18.430  0.0000E+00  0.0000E+00  0.1280E+03
  18.440  0.0000E+00  0.0000E+00  0.1280E+03
  18.450  0.0000E+00  0.0000E+00  0.1280E+03
  18.460  0.0000E+00  0.0000E+00  0.1280E+03
  18.470  0.0000E+00  0.0000E+00  0.1280E+03
  18.480  0.0000E+00  0.0000E+00  0.1280E+03
  18.490  0.0000E+00  0.0000E+00  0.1280E+03
  18.500  0.0000E+00  0.0000E+00  0.1280E+03
  18.510  0.0000E+00  0.0000E+00  0.1280E+03
  18.520  0.0000E+00  0.0000E+00  0.1280E+03
  18.530  0.0000E+00  0.0000E+00  0.1280E+03
  18.540  0.0000E+00  0.0000E+00  0.1280E+03
  18.550  0.0000E+00  0.0000E+00  0.1280E+03
  18.560  0.0000E+00  0.0000E+00  0.1280E+03
  18.570  0.0000E+00  0.0000E+00  0.1280E+03
  18.580  0.0000E+00  0.0000E+00  0.1280E+03
  18.590  0.0000E+00  0.0000E+00  0.1280E+03
  18.600  0.0000E+00  0.0000E+00  0.1280E+03
  18.610  0.0000E+00  0.0000E+00  0.1280E+03
  18.620  0.0000E+00  0.0000E+00  0.1280E+03
  18.630  0.0000E+00  0.0000E+00  0.1280E+03
  18.640  0.0000E+00  0.0000E+00  0.1280E+03
  18.650  0.0000E+00  0.0000E+00  0.1280E+03
  18.660  0.0000E+00  0.0000E+00  0.1280E+03
  18.670  0.0000E+00  0.0000E+00  0.1280E+03
  18.680  0.0000E+00  0.0000E+00  0.1280E+03
  18.690  0.0000E+00  0.0000E+00  0.1280E+03
  18.700  0.0000E+00  0.0000E+00  0.1280E+03
  18.710  0.0000E+00  0.0000E+00  0.1280E+03
  18.720  0.0000E+00  0.0000E+00  0.1280E+03
  18.730  0.0000E+00  0.0000E+00  0.1280E+03
  18.740  0.0000E+00  0.0000E+00  0.1280E+03
  18.750  0.0000E+00  0.0000E+00  0.1280E+03
  18.760  0.0000E+00  0.0000E+00  0.1280E+03
  18.770  0.0000E+00  0.0000E+00  0.1280E+03
  18.780  0.0000E+00  0.0000E+00  0.1280E+03
  18.790  0.0000E+00  0.0000E+00  0.1280E+03
  18.800  0.0000E+00  0.0000E+00  0.1280E+03
  18.810  0.0000E+00  0.0000E+00  0.1280E+03
  18.820  0.0000E+00  0.0000E+00  0.1280E+03
  18.830  0.0000E+00  0.0000E+00  0.1280E+03
  18.840  0.0000E+00  0.0000E+00  0.1280E+03
  18.850  0.0000E+00  0.0000E+00  0.1280E+03
  18.860  0.0000E+00  0.0000E+00  0.1280E+03
  18.870  0.0000E+00  0.0000E+00  0.1280E+03
  18.880  0.0000E+00  0.0000E+00  0.1280E+03
  18.890  0.0000E+00  0.0000E+00  0.1280E+03
  18.900  0.0000E+00  0.0000E+00  0.1280E+03
  18.910  0.0000E+00  0.0000E+00  0.1280E+03
  18.920  0.0000E+00  0.0000E+00  0.1280E+03
  18.930  0.0000E+00  0.0000E+00  0.1280E+03
  18.940  0.0000E+00  0.0000E+00  0.1280E+03
  18.950  0.0000E+00  0.0000E+00  0.1280E+03
  18.960  0.0000E+00  0.0000E+00  0.1280E+03
  18.970  0.0000E+00  0.0000E+00  0.1280E+03
  18.980  0.0000E+00  0.0000E+00  0.1280E+03
  18.990  0.0000E+00  0.0000E+00  0.1280E+03
  19.000  0.0000E+00  0.0000E+00  0.1280E+03
  19.010  0.0000E+00  0.0000E+00  0.1280E+03
  19.020  0.0000E+00  0.0000E+00  0.1280E+03
  19.030  0.0000E+00  0.0000E+00  0.1280E+03
  19.040  0.0000E+00  0.0000E+00  0.1280E+03
  19.050  0.0000E+00  0.0000E+00  0.1280E+03
  19.060  0.0000E+00  0.0000E+00  0.1280E+03
  19.070  0.0000E+00  0.0000E+00  0.1280E+03
  19.080  0.0000E+00  0.0000E+00  0.1280E+03
  19.090  0.0000E+00  0.0000E+00  0.1280E+03
  19.100  0.0000E+00  0.0000E+00  0.1280E+03
  19.110  0.0000E+00  0.0000E+00  0.1280E+03
  19.120  0.0000E+00  0.0000E+00  0.1280E+03
  19.130  0.0000E+00  0.0000E+00  0.1280E+03
  19.140  0.0000E+00  0.0000E+00  0.1280E+03
  19.150  0.0000E+00  0.0000E+00  0.1280E+03
  19.160  0.0000E+00  0.0000E+00  0.1280E+03
  19.170  0.0000E+00  0.0000E+00  0.1280E+03
  19.180  0.0000E+00  0.0000E+00  0.1280E+03
  19.190  0.0000E+00  0.0000E+00  0.1280E+03
  19.200  0.0000E+00  0.0000E+00  0.1280E+03
  19.210  0.0000E+00  0.0000E+00  0.1280E+03
  19.220  0.0000E+00  0.0000E+00  0.1280E+03
  19.230  0.0000E+00  0.0000E+00  0.1280E+03
  19.240  0.0000E+00  0.0000E+00  0.1280E+03
  19.250  0.0000E+00  0.0000E+00  0.1280E+03
  19.260  0.0000E+00  0.0000E+00  0.1280E+03
  19.270  0.0000E+00  0.0000E+00  0.1280E+03
  19.280  0.0000E+00  0.0000E+00  0.1280E+03
  19.290  0.0000E+00  0.0000E+00  0.1280E+03
  19.300  0.0000E+00  0.0000E+00  0.1280E+03
  19.310  0.0000E+00  0.0000E+00  0.1280E+03
  19.320  0.0000E+00  0.0000E+00  0.1280E+03
  19.330  0.0000E+00  0.0000E+00  0.1280E+03
  19.340  0.0000E+00  0.0000E+00  0.1280E+03
  19.350  0.0000E+00  0.0000E+00  0.1280E+03
  19.360  0.0000E+00  0.0000E+00  0.1280E+03
  19.370  0.0000E+00  0.0000E+00  0.1280E+03
  19.380  0.0000E+00  0.0000E+00  0.1280E+03
  19.390  0.0000E+00  0.0000E+00  0.1280E+03
  19.400  0.0000E+00  0.0000E+00  0.1280E+03
  19.410  0.0000E+00  0.0000E+00  0.1280E+03
  19.420  0.0000E+00  0.0000E+00  0.1280E+03
  19.430  0.0000E+00  0.0000E+00  0.1280E+03
  19.440  0.0000E+00  0.0000E+00  0.1280E+03
  19.450  0.0000E+00  0.0000E+00  0.1280E+03
  19.460  0.0000E+00  0.0000E+00  0.1280E+03
  19.470  0.0000E+00  0.0000E+00  0.1280E+03
  19.480  0.0000E+00  0.0000E+00  0.1280E+03
  19.490  0.0000E+00  0.0000E+00  0.1280E+03
  19.500  0.0000E+00  0.0000E+00  0.1280E+03
  19.510  0.0000E+00  0.0000E+00  0.1280E+03
  19.520  0.0000E+00  0.0000E+00  0.1280E+03
  19.530  0.0000E+00  0.0000E+00  0.1280E+03
  19.540  0.0000E+00  0.0000E+00  0.1280E+03
  19.550  0.0000E+00  0.0000E+00  0.1280E+03
  19.560  0.0000E+00  0.0000E+00  0.1280E+03
  19.570  0.0000E+00  0.0000E+00  0.1280E+03
  19.580  0.0000E+00  0.0000E+00  0.1280E+03
  19.590  0.0000E+00  0.0000E+00  0.1280E+03
  19.600  0.0000E+00  0.0000E+00  0.1280E+03
  19.610  0.0000E+00  0.0000E+00  0.1280E+03
  19.620  0.0000E+00  0.0000E+00  0.1280E+03
  19.630  0.0000E+00  0.0000E+00  0.1280E+03
  19.640  0.0000E+00  0.0000E+00  0.1280E+03
  19.650  0.0000E+00  0.0000E+00  0.1280E+03
  19.660  0.0000E+00  0.0000E+00  0.1280E+03
  19.670  0.0000E+00  0.0000E+00  0.1280E+03
  19.680  0.0000E+00  0.0000E+00  0.1280E+03
  19.690  0.0000E+00  0.0000E+00  0.1280E+03
  19.700  0.0000E+00  0.0000E+00  0.1280E+03
  19.710  0.0000E+00  0.0000E+00  0.1280E+03
  19.720  0.0000E+00  0.0000E+00  0.1280E+03
  19.730  0.0000E+00  0.0000E+00  0.1280E+03
  19.740  0.0000E+00  0.0000E+00  0.1280E+03
  19.750  0.0000E+00  0.0000E+00  0.1280E+03
  19.760  0.0000E+00  0.0000E+00  0.1280E+03
  19.770  0.0000E+00  0.0000E+00  0.1280E+03
  19.780  0.0000E+00  0.0000E+00  0.1280E+03
  19.790  0.0000E+00  0.0000E+00  0.1280E+03
  19.800  0.0000E+00  0.0000E+00  0.1280E+03
  19.810  0.0000E+00  0.0000E+00  0.1280E+03
  19.820  0.0000E+00  0.0000E+00  0.1280E+03
  19.830  0.0000E+00  0.0000E+00  0.1280E+03
  19.840  0.0000E+00  0.0000E+00  0.1280E+03
  19.850  0.0000E+00  0.0000E+00  0.1280E+03
  19.860  0.0000E+00  0.0000E+00  0.1280E+03
  19.870  0.0000E+00  0.0000E+00  0.1280E+03
  19.880  0.0000E+00  0.0000E+00  0.1280E+03
  19.890  0.0000E+00  0.0000E+00  0.1280E+03
  19.900  0.0000E+00  0.0000E+00  0.1280E+03
  19.910  0.0000E+00  0.0000E+00  0.1280E+03
  19.920  0.0000E+00  0.0000E+00  0.1280E+03
  19.930  0.0000E+00  0.0000E+00  0.1280E+03
  19.940  0.0000E+00  0.0000E+00  0.1280E+03
  19.950  0.0000E+00  0.0000E+00  0.1280E+03
  19.960  0.0000E+00  0.0000E+00  0.1280E+03
  19.970  0.0000E+00  0.0000E+00  0.1280E+03
  19.980  0.0000E+00  0.0000E+00  0.1280E+03
  19.990  0.0000E+00  0.0000E+00  0.1280E+03
  20.000  0.0000E+00  0.0000E+00  0.1280E+03
  20.010  0.0000E+00  0.0000E+00  0.1280E+03
  20.020  0.0000E+00  0.0000E+00  0.1280E+03
  20.030  0.0000E+00  0.0000E+00  0.1280E+03
  20.040  0.0000E+00  0.0000E+00  0.1280E+03
  20.050  0.0000E+00  0.0000E+00  0.1280E+03
  20.060  0.0000E+00  0.0000E+00  0.1280E+03
  20.070  0.0000E+00  0.0000E+00  0.1280E+03
  20.080  0.0000E+00  0.0000E+00  0.1280E+03
  20.090  0.0000E+00  0.0000E+00  0.1280E+03
  20.100  0.0000E+00  0.0000E+00  0.1280E+03
  20.110  0.0000E+00  0.0000E+00  0.1280E+03
  20.120  0.0000E+00  0.0000E+00  0.1280E+03
  20.130  0.0000E+00  0.0000E+00  0.1280E+03
  20.140  0.0000E+00  0.0000E+00  0.1280E+03
  20.150  0.0000E+00  0.0000E+00  0.1280E+03
  20.160  0.0000E+00  0.0000E+00  0.1280E+03
  20.170  0.0000E+00  0.0000E+00  0.1280E+03
  20.180  0.0000E+00  0.0000E+00  0.1280E+03
  20.190  0.0000E+00  0.0000E+00  0.1280E+03
  20.200  0.0000E+00  0.0000E+00  0.1280E+03
  20.210  0.0000E+00  0.0000E+00  0.1280E+03
  20.220  0.0000E+00  0.0000E+00  0.1280E+03
  20.230  0.0000E+00  0.0000E+00  0.1280E+03
  20.240  0.0000E+00  0.0000E+00  0.1280E+03
  20.250  0.0000E+00  0.0000E+00  0.1280E+03
  20.260  0.0000E+00  0.0000E+00  0.1280E+03
  20.270  0.0000E+00  0.0000E+00  0.1280E+03
  20.280  0.0000E+00  0.0000E+00  0.1280E+03
  20.290  0.0000E+00  0.0000E+00  0.1280E+03
  20.300  0.0000E+00  0.0000E+00  0.1280E+03
  20.310  0.0000E+00  0.0000E+00  0.1280E+03
  20.320  0.0000E+00  0.0000E+00  0.1280E+03
  20.330  0.0000E+00  0.0000E+00  0.1280E+03
  20.340  0.0000E+00  0.0000E+00  0.1280E+03
  20.350  0.0000E+00  0.0000E+00  0.1280E+03
  20.360  0.0000E+00  0.0000E+00  0.1280E+03
  20.370  0.0000E+00  0.0000E+00  0.1280E+03
  20.380  0.0000E+00  0.0000E+00  0.1280E+03
  20.390  0.0000E+00  0.0000E+00  0.1280E+03
  20.400  0.0000E+00  0.0000E+00  0.1280E+03
  20.410  0.0000E+00  0.0000E+00  0.1280E+03
  20.420  0.0000E+00  0.0000E+00  0.1280E+03
  20.430  0.0000E+00  0.0000E+00  0.1280E+03
  20.440  0.0000E+00  0.0000E+00  0.1280E+03
  20.450  0.0000E+00  0.0000E+00  0.1280E+03
  20.460  0.0000E+00  0.0000E+00  0.1280E+03
  20.470  0.0000E+00  0.0000E+00  0.1280E+03
  20.480  0.0000E+00  0.0000E+00  0.1280E+03
  20.490  0.0000E+00  0.0000E+00  0.1280E+03
  20.500  0.0000E+00  0.0000E+00  0.1280E+03
  20.510  0.0000E+00  0.0000E+00  0.1280E+03
  20.520  0.0000E+00  0.0000E+00  0.1280E+03
  20.530  0.0000E+00  0.0000E+00  0.1280E+03
  20.540  0.0000E+00  0.0000E+00  0.1280E+03
  20.550  0.0000E+00  0.0000E+00  0.1280E+03
  20.560  0.0000E+00  0.0000E+00  0.1280E+03
  20.570  0.0000E+00  0.0000E+00  0.1280E+03
  20.580  0.0000E+00  0.0000E+00  0.1280E+03
  20.590  0.0000E+00  0.0000E+00  0.1280E+03
  20.600  0.0000E+00  0.0000E+00  0.1280E+03
  20.610  0.0000E+00  0.0000E+00  0.1280E+03
  20.620  0.0000E+00  0.0000E+00  0.1280E+03
  20.630  0.0000E+00  0.0000E+00  0.1280E+03
  20.640  0.0000E+00  0.0000E+00  0.1280E+03
  20.650  0.0000E+00  0.0000E+00  0.1280E+03
  20.660  0.0000E+00  0.0000E+00  0.1280E+03
  20.670  0.0000E+00  0.0000E+00  0.1280E+03
  20.680  0.0000E+00  0.0000E+00  0.1280E+03
  20.690  0.0000E+00  0.0000E+00  0.1280E+03
  20.700  0.0000E+00  0.0000E+00  0.1280E+03
  20.710  0.0000E+00  0.0000E+00  0.1280E+03
  20.720  0.0000E+00  0.0000E+00  0.1280E+03
  20.730  0.0000E+00  0.0000E+00  0.1280E+03
  20.740  0.0000E+00  0.0000E+00  0.1280E+03
  20.750  0.0000E+00  0.0000E+00  0.1280E+03
  20.760  0.0000E+00  0.0000E+00  0.1280E+03
  20.770  0.0000E+00  0.0000E+00  0.1280E+03
  20.780  0.0000E+00  0.0000E+00  0.1280E+03
  20.790  0.0000E+00  0.0000E+00  0.1280E+03
  20.800  0.0000E+00  0.0000E+00  0.1280E+03
  20.810  0.0000E+00  0.0000E+00  0.1280E+03
  20.820  0.0000E+00  0.0000E+00  0.1280E+03
  20.830  0.0000E+00  0.0000E+00  0.1280E+03
  20.840  0.0000E+00  0.0000E+00  0.1280E+03
  20.850  0.0000E+00  0.0000E+00  0.1280E+03
  20.860  0.0000E+00  0.0000E+00  0.1280E+03
  20.870  0.0000E+00  0.0000E+00  0.1280E+03
  20.880  0.0000E+00  0.0000E+00  0.1280E+03
  20.890  0.0000E+00  0.0000E+00  0.1280E+03
  20.900  0.0000E+00  0.0000E+00  0.1280E+03
  20.910  0.0000E+00  0.0000E+00  0.1280E+03
  20.920  0.0000E+00  0.0000E+00  0.1280E+03
  20.930  0.0000E+00  0.0000E+00  0.1280E+03
  20.940  0.0000E+00  0.0000E+00  0.1280E+03
  20.950  0.0000E+00  0.0000E+00  0.1280E+03
  20.960  0.0000E+00  0.0000E+00  0.1280E+03
  20.970  0.0000E+00  0.0000E+00  0.1280E+03
  20.980  0.0000E+00  0.0000E+00  0.1280E+03
  20.990  0.0000E+00  0.0000E+00  0.1280E+03
  21.000  0.0000E+00  0.0000E+00  0.1280E+03
  21.010  0.0000E+00  0.0000E+00  0.1280E+03
  21.020  0.0000E+00  0.0000E+00  0.1280E+03
  21.030  0.0000E+00  0.0000E+00  0.1280E+03
  21.040  0.0000E+00  0.0000E+00  0.1280E+03
  21.050  0.0000E+00  0.0000E+00  0.1280E+03
  21.060  0.0000E+00  0.0000E+00  0.1280E+03
  21.070  0.0000E+00  0.0000E+00  0.1280E+03
  21.080  0.0000E+00  0.0000E+00  0.1280E+03
  21.090  0.0000E+00  0.0000E+00  0.1280E+03
  21.100  0.0000E+00  0.0000E+00  0.1280E+03
  21.110  0.0000E+00  0.0000E+00  0.1280E+03
  21.120  0.0000E+00  0.0000E+00  0.1280E+03
  21.130  0.0000E+00  0.0000E+00  0.1280E+03
  21.140  0.0000E+00  0.0000E+00  0.1280E+03
  21.150  0.0000E+00  0.0000E+00  0.1280E+03
  21.160  0.0000E+00  0.0000E+00  0.1280E+03
  21.170  0.0000E+00  0.0000E+00  0.1280E+03
  21.180  0.0000E+00  0.0000E+00  0.1280E+03
  21.190  0.0000E+00  0.0000E+00  0.1280E+03
  21.200  0.0000E+00  0.0000E+00  0.1280E+03
  21.210  0.0000E+00  0.0000E+00  0.1280E+03
  21.220  0.0000E+00  0.0000E+00  0.1280E+03
  21.230  0.0000E+00  0.0000E+00  0.1280E+03
  21.240  0.0000E+00  0.0000E+00  0.1280E+03
  21.250  0.0000E+00  0.0000E+00  0.1280E+03
  21.260  0.0000E+00  0.0000E+00  0.1280E+03
  21.270  0.0000E+00  0.0000E+00  0.1280E+03
  21.280  0.0000E+00  0.0000E+00  0.1280E+03
  21.290  0.0000E+00  0.0000E+00  0.1280E+03
  21.300  0.0000E+00  0.0000E+00  0.1280E+03
  21.310  0.0000E+00  0.0000E+00  0.1280E+03
  21.320  0.0000E+00  0.0000E+00  0.1280E+03
  21.330  0.0000E+00  0.0000E+00  0.1280E+03
  21.340  0.0000E+00  0.0000E+00  0.1280E+03
  21.350  0.0000E+00  0.0000E+00  0.1280E+03
  21.360  0.0000E+00  0.0000E+00  0.1280E+03
  21.370  0.0000E+00  0.0000E+00  0.1280E+03
  21.380  0.0000E+00  0.0000E+00  0.1280E+03
  21.390  0.0000E+00  0.0000E+00  0.1280E+03
  21.400  0.0000E+00  0.0000E+00  0.1280E+03
  21.410  0.0000E+00  0.0000E+00  0.1280E+03
  21.420  0.0000E+00  0.0000E+00  0.1280E+03
  21.430  0.0000E+00  0.0000E+00  0.1280E+03
  21.440  0.0000E+00  0.0000E+00  0.1280E+03
  21.450  0.0000E+00  0.0000E+00  0.1280E+03
  21.460  0.0000E+00  0.0000E+00  0.1280E+03
  21.470  0.0000E+00  0.0000E+00  0.1280E+03
  21.480  0.0000E+00  0.0000E+00  0.1280E+03
  21.490  0.0000E+00  0.0000E+00  0.1280E+03
  21.500  0.0000E+00  0.0000E+00  0.1280E+03
  21.510  0.0000E+00  0.0000E+00  0.1280E+03
  21.520  0.0000E+00  0.0000E+00  0.1280E+03
  21.530  0.0000E+00  0.0000E+00  0.1280E+03
  21.540  0.0000E+00  0.0000E+00  0.1280E+03
  21.550  0.0000E+00  0.0000E+00  0.1280E+03
  21.560  0.0000E+00  0.0000E+00  0.1280E+03
  21.570  0.0000E+00  0.0000E+00  0.1280E+03
  21.580  0.0000E+00  0.0000E+00  0.1280E+03
  21.590  0.0000E+00  0.0000E+00  0.1280E+03
  21.600  0.0000E+00  0.0000E+00  0.1280E+03
  21.610  0.0000E+00  0.0000E+00  0.1280E+03
  21.620  0.0000E+00  0.0000E+00  0.1280E+03
  21.630  0.0000E+00  0.0000E+00  0.1280E+03
  21.640  0.0000E+00  0.0000E+00  0.1280E+03
  21.650  0.0000E+00  0.0000E+00  0.1280E+03
  21.660  0.0000E+00  0.0000E+00  0.1280E+03
  21.670  0.0000E+00  0.0000E+00  0.1280E+03
  21.680  0.0000E+00  0.0000E+00  0.1280E+03
  21.690  0.0000E+00  0.0000E+00  0.1280E+03
  21.700  0.0000E+00  0.0000E+00  0.1280E+03
  21.710  0.0000E+00  0.0000E+00  0.1280E+03
  21.720  0.0000E+00  0.0000E+00  0.1280E+03
  21.730  0.0000E+00  0.0000E+00  0.1280E+03
  21.740  0.0000E+00  0.0000E+00  0.1280E+03
  21.750  0.0000E+00  0.0000E+00  0.1280E+03
  21.760  0.0000E+00  0.0000E+00  0.1280E+03
  21.770  0.0000E+00  0.0000E+00  0.1280E+03
  21.780  0.0000E+00  0.0000E+00  0.1280E+03
  21.790  0.0000E+00  0.0000E+00  0.1280E+03
  21.800  0.0000E+00  0.0000E+00  0.1280E+03
  21.810  0.0000E+00  0.0000E+00  0.1280E+03
  21.820  0.0000E+00  0.0000E+00  0.1280E+03
  21.830  0.0000E+00  0.0000E+00  0.1280E+03
  21.840  0.0000E+00  0.0000E+00  0.1280E+03
  21.850  0.0000E+00  0.0000E+00  0.1280E+03
  21.860  0.0000E+00  0.0000E+00  0.1280E+03
  21.870  0.0000E+00  0.0000E+00  0.1280E+03
  21.880  0.0000E+00  0.0000E+00  0.1280E+03
  21.890  0.0000E+00  0.0000E+00  0.1280E+03
  21.900  0.0000E+00  0.0000E+00  0.1280E+03
  21.910  0.0000E+00  0.0000E+00  0.1280E+03
  21.920  0.0000E+00  0.0000E+00  0.1280E+03
  21.930  0.0000E+00  0.0000E+00  0.1280E+03
  21.940  0.0000E+00  0.0000E+00  0.1280E+03
  21.950  0.0000E+00  0.0000E+00  0.1280E+03
  21.960  0.0000E+00  0.0000E+00  0.1280E+03
  21.970  0.0000E+00  0.0000E+00  0.1280E+03
  21.980  0.0000E+00  0.0000E+00  0.1280E+03
  21.990  0.0000E+00  0.0000E+00  0.1280E+03
  22.000  0.0000E+00  0.0000E+00  0.1280E+03
  22.010  0.0000E+00  0.0000E+00  0.1280E+03
  22.020  0.0000E+00  0.0000E+00  0.1280E+03
  22.030  0.0000E+00  0.0000E+00  0.1280E+03
  22.040  0.0000E+00  0.0000E+00  0.1280E+03
  22.050  0.0000E+00  0.0000E+00  0.1280E+03
  22.060  0.0000E+00  0.0000E+00  0.1280E+03
  22.070  0.0000E+00  0.0000E+00  0.1280E+03
  22.080  0.0000E+00  0.0000E+00  0.1280E+03
  22.090  0.0000E+00  0.0000E+00  0.1280E+03
  22.100  0.0000E+00  0.0000E+00  0.1280E+03
  22.110  0.0000E+00  0.0000E+00  0.1280E+03
  22.120  0.0000E+00  0.0000E+00  0.1280E+03
  22.130  0.0000E+00  0.0000E+00  0.1280E+03
  22.140  0.0000E+00  0.0000E+00  0.1280E+03
  22.150  0.0000E+00  0.0000E+00  0.1280E+03
  22.160  0.0000E+00  0.0000E+00  0.1280E+03
  22.170  0.0000E+00  0.0000E+00  0.1280E+03
  22.180  0.0000E+00  0.0000E+00  0.1280E+03
  22.190  0.0000E+00  0.0000E+00  0.1280E+03
  22.200  0.0000E+00  0.0000E+00  0.1280E+03
  22.210  0.0000E+00  0.0000E+00  0.1280E+03
  22.220  0.0000E+00  0.0000E+00  0.1280E+03
  22.230  0.0000E+00  0.0000E+00  0.1280E+03
  22.240  0.0000E+00  0.0000E+00  0.1280E+03
  22.250  0.0000E+00  0.0000E+00  0.1280E+03
  22.260  0.0000E+00  0.0000E+00  0.1280E+03
  22.270  0.0000E+00  0.0000E+00  0.1280E+03
  22.280  0.0000E+00  0.0000E+00  0.1280E+03
  22.290  0.0000E+00  0.0000E+00  0.1280E+03
  22.300  0.0000E+00  0.0000E+00  0.1280E+03
  22.310  0.0000E+00  0.0000E+00  0.1280E+03
  22.320  0.0000E+00  0.0000E+00  0.1280E+03
  22.330  0.0000E+00  0.0000E+00  0.1280E+03
  22.340  0.0000E+00  0.0000E+00  0.1280E+03
  22.350  0.0000E+00  0.0000E+00  0.1280E+03
  22.360  0.0000E+00  0.0000E+00  0.1280E+03
  22.370  0.0000E+00  0.0000E+00  0.1280E+03
  22.380  0.0000E+00  0.0000E+00  0.1280E+03
  22.390  0.0000E+00  0.0000E+00  0.1280E+03
  22.400  0.0000E+00  0.0000E+00  0.1280E+03
  22.410  0.0000E+00  0.0000E+00  0.1280E+03
  22.420  0.0000E+00  0.0000E+00  0.1280E+03
  22.430  0.0000E+00  0.0000E+00  0.1280E+03
  22.440  0.0000E+00  0.0000E+00  0.1280E+03
  22.450  0.0000E+00  0.0000E+00  0.1280E+03
  22.460  0.0000E+00  0.0000E+00  0.1280E+03
  22.470  0.0000E+00  0.0000E+00  0.1280E+03
  22.480  0.0000E+00  0.0000E+00  0.1280E+03
  22.490  0.0000E+00  0.0000E+00  0.1280E+03
  22.500  0.0000E+00  0.0000E+00  0.1280E+03
  22.510  0.0000E+00  0.0000E+00  0.1280E+03
  22.520  0.0000E+00  0.0000E+00  0.1280E+03
  22.530  0.0000E+00  0.0000E+00  0.1280E+03
  22.540  0.0000E+00  0.0000E+00  0.1280E+03
  22.550  0.0000E+00  0.0000E+00  0.1280E+03
  22.560  0.0000E+00  0.0000E+00  0.1280E+03
  22.570  0.0000E+00  0.0000E+00  0.1280E+03
  22.580  0.0000E+00  0.0000E+00  0.1280E+03
  22.590  0.0000E+00  0.0000E+00  0.1280E+03
  22.600  0.0000E+00  0.0000E+00  0.1280E+03
  22.610  0.0000E+00  0.0000E+00  0.1280E+03
  22.620  0.0000E+00  0.0000E+00  0.1280E+03
  22.630  0.0000E+00  0.0000E+00  0.1280E+03
  22.640  0.0000E+00  0.0000E+00  0.1280E+03
  22.650  0.0000E+00  0.0000E+00  0.1280E+03
  22.660  0.0000E+00  0.0000E+00  0.1280E+03
  22.670  0.0000E+00  0.0000E+00  0.1280E+03
  22.680  0.0000E+00  0.0000E+00  0.1280E+03
  22.690  0.0000E+00  0.0000E+00  0.1280E+03
  22.700  0.0000E+00  0.0000E+00  0.1280E+03
  22.710  0.0000E+00  0.0000E+00  0.1280E+03
  22.720  0.0000E+00  0.0000E+00  0.1280E+03
  22.730  0.0000E+00  0.0000E+00  0.1280E+03
  22.740  0.0000E+00  0.0000E+00  0.1280E+03
  22.750  0.0000E+00  0.0000E+00  0.1280E+03
  22.760  0.0000E+00  0.0000E+00  0.1280E+03
  22.770  0.0000E+00  0.0000E+00  0.1280E+03
  22.780  0.0000E+00  0.0000E+00  0.1280E+03
  22.790  0.0000E+00  0.0000E+00  0.1280E+03
  22.800  0.0000E+00  0.0000E+00  0.1280E+03
  22.810  0.0000E+00  0.0000E+00  0.1280E+03
  22.820  0.0000E+00  0.0000E+00  0.1280E+03
  22.830  0.0000E+00  0.0000E+00  0.1280E+03
  22.840  0.0000E+00  0.0000E+00  0.1280E+03
  22.850  0.0000E+00  0.0000E+00  0.1280E+03
  22.860  0.0000E+00  0.0000E+00  0.1280E+03
  22.870  0.0000E+00  0.0000E+00  0.1280E+03
  22.880  0.0000E+00  0.0000E+00  0.1280E+03
  22.890  0.0000E+00  0.0000E+00  0.1280E+03
  22.900  0.0000E+00  0.0000E+00  0.1280E+03
  22.910  0.0000E+00  0.0000E+00  0.1280E+03
  22.920  0.0000E+00  0.0000E+00  0.1280E+03
  22.930  0.0000E+00  0.0000E+00  0.1280E+03
  22.940  0.0000E+00  0.0000E+00  0.1280E+03
  22.950  0.0000E+00  0.0000E+00  0.1280E+03
  22.960  0.0000E+00  0.0000E+00  0.1280E+03
  22.970  0.0000E+00  0.0000E+00  0.1280E+03
  22.980  0.0000E+00  0.0000E+00  0.1280E+03
  22.990  0.0000E+00  0.0000E+00  0.1280E+03
  23.000  0.0000E+00  0.0000E+00  0.1280E+03
  23.010  0.0000E+00  0.0000E+00  0.1280E+03
  23.020  0.0000E+00  0.0000E+00  0.1280E+03
  23.030  0.0000E+00  0.0000E+00  0.1280E+03
  23.040  0.0000E+00  0.0000E+00  0.1280E+03
  23.050  0.0000E+00  0.0000E+00  0.1280E+03
  23.060  0.0000E+00  0.0000E+00  0.1280E+03
  23.070  0.0000E+00  0.0000E+00  0.1280E+03
  23.080  0.0000E+00  0.0000E+00  0.1280E+03
  23.090  0.0000E+00  0.0000E+00  0.1280E+03
  23.100  0.0000E+00  0.0000E+00  0.1280E+03
  23.110  0.0000E+00  0.0000E+00  0.1280E+03
  23.120  0.0000E+00  0.0000E+00  0.1280E+03
  23.130  0.0000E+00  0.0000E+00  0.1280E+03
  23.140  0.0000E+00  0.0000E+00  0.1280E+03
  23.150  0.0000E+00  0.0000E+00  0.1280E+03
  23.160  0.0000E+00  0.0000E+00  0.1280E+03
  23.170  0.0000E+00  0.0000E+00  0.1280E+03
  23.180  0.0000E+00  0.0000E+00  0.1280E+03
  23.190  0.0000E+00  0.0000E+00  0.1280E+03
  23.200  0.0000E+00  0.0000E+00  0.1280E+03
  23.210  0.0000E+00  0.0000E+00  0.1280E+03
  23.220  0.0000E+00  0.0000E+00  0.1280E+03
  23.230  0.0000E+00  0.0000E+00  0.1280E+03
  23.240  0.0000E+00  0.0000E+00  0.1280E+03
  23.250  0.0000E+00  0.0000E+00  0.1280E+03
  23.260  0.0000E+00  0.0000E+00  0.1280E+03
  23.270  0.0000E+00  0.0000E+00  0.1280E+03
  23.280  0.0000E+00  0.0000E+00  0.1280E+03
  23.290  0.0000E+00  0.0000E+00  0.1280E+03
  23.300  0.0000E+00  0.0000E+00  0.1280E+03
  23.310  0.0000E+00  0.0000E+00  0.1280E+03
  23.320  0.0000E+00  0.0000E+00  0.1280E+03
  23.330  0.0000E+00  0.0000E+00  0.1280E+03
  23.340  0.0000E+00  0.0000E+00  0.1280E+03
  23.350  0.0000E+00  0.0000E+00  0.1280E+03
  23.360  0.0000E+00  0.0000E+00  0.1280E+03
  23.370  0.0000E+00  0.0000E+00  0.1280E+03
  23.380  0.0000E+00  0.0000E+00  0.1280E+03
  23.390  0.0000E+00  0.0000E+00  0.1280E+03
  23.400  0.0000E+00  0.0000E+00  0.1280E+03
  23.410  0.0000E+00  0.0000E+00  0.1280E+03
  23.420  0.0000E+00  0.0000E+00  0.1280E+03
  23.430  0.0000E+00  0.0000E+00  0.1280E+03
  23.440  0.0000E+00  0.0000E+00  0.1280E+03
  23.450  0.0000E+00  0.0000E+00  0.1280E+03
  23.460  0.0000E+00  0.0000E+00  0.1280E+03
  23.470  0.0000E+00  0.0000E+00  0.1280E+03
  23.480  0.0000E+00  0.0000E+00  0.1280E+03
  23.490  0.0000E+00  0.0000E+00  0.1280E+03
  23.500  0.0000E+00  0.0000E+00  0.1280E+03
  23.510  0.0000E+00  0.0000E+00  0.1280E+03
  23.520  0.0000E+00  0.0000E+00  0.1280E+03
  23.530  0.0000E+00  0.0000E+00  0.1280E+03
  23.540  0.0000E+00  0.0000E+00  0.1280E+03
  23.550  0.0000E+00  0.0000E+00  0.1280E+03
  23.560  0.0000E+00  0.0000E+00  0.1280E+03
  23.570  0.0000E+00  0.0000E+00  0.1280E+03
  23.580  0.0000E+00  0.0000E+00  0.1280E+03
  23.590  0.0000E+00  0.0000E+00  0.1280E+03
  23.600  0.0000E+00  0.0000E+00  0.1280E+03
  23.610  0.0000E+00  0.0000E+00  0.1280E+03
  23.620  0.0000E+00  0.0000E+00  0.1280E+03
  23.630  0.0000E+00  0.0000E+00  0.1280E+03
  23.640  0.0000E+00  0.0000E+00  0.1280E+03
  23.650  0.0000E+00  0.0000E+00  0.1280E+03
  23.660  0.0000E+00  0.0000E+00  0.1280E+03
  23.670  0.0000E+00  0.0000E+00  0.1280E+03
  23.680  0.0000E+00  0.0000E+00  0.1280E+03
  23.690  0.0000E+00  0.0000E+00  0.1280E+03
  23.700  0.0000E+00  0.0000E+00  0.1280E+03
  23.710  0.0000E+00  0.0000E+00  0.1280E+03
  23.720  0.0000E+00  0.0000E+00  0.1280E+03
  23.730  0.0000E+00  0.0000E+00  0.1280E+03
  23.740  0.0000E+00  0.0000E+00  0.1280E+03
  23.750  0.0000E+00  0.0000E+00  0.1280E+03
  23.760  0.0000E+00  0.0000E+00  0.1280E+03
  23.770  0.0000E+00  0.0000E+00  0.1280E+03
  23.780  0.0000E+00  0.0000E+00  0.1280E+03
  23.790  0.0000E+00  0.0000E+00  0.1280E+03
  23.800  0.0000E+00  0.0000E+00  0.1280E+03
  23.810  0.0000E+00  0.0000E+00  0.1280E+03
  23.820  0.0000E+00  0.0000E+00  0.1280E+03
  23.830  0.0000E+00  0.0000E+00  0.1280E+03
  23.840  0.0000E+00  0.0000E+00  0.1280E+03
  23.850  0.0000E+00  0.0000E+00  0.1280E+03
  23.860  0.0000E+00  0.0000E+00  0.1280E+03
  23.870  0.0000E+00  0.0000E+00  0.1280E+03
  23.880  0.0000E+00  0.0000E+00  0.1280E+03
  23.890  0.0000E+00  0.0000E+00  0.1280E+03
  23.900  0.0000E+00  0.0000E+00  0.1280E+03
  23.910  0.0000E+00  0.0000E+00  0.1280E+03
  23.920  0.0000E+00  0.0000E+00  0.1280E+03
  23.930  0.0000E+00  0.0000E+00  0.1280E+03
  23.940  0.0000E+00  0.0000E+00  0.1280E+03
  23.950  0.0000E+00  0.0000E+00  0.1280E+03
  23.960  0.0000E+00  0.0000E+00  0.1280E+03
  23.970  0.0000E+00  0.0000E+00  0.1280E+03
  23.980  0.0000E+00  0.0000E+00  0.1280E+03
  23.990  0.0000E+00  0.0000E+00  0.1280E+03
  24.000  0.0000E+00  0.0000E+00  0.1280E+03
  24.010  0.0000E+00  0.0000E+00  0.1280E+03
  24.020  0.0000E+00  0.0000E+00  0.1280E+03
  24.030  0.0000E+00  0.0000E+00  0.1280E+03
  24.040  0.0000E+00  0.0000E+00  0.1280E+03
  24.050  0.0000E+00  0.0000E+00  0.1280E+03
  24.060  0.0000E+00  0.0000E+00  0.1280E+03
  24.070  0.0000E+00  0.0000E+00  0.1280E+03
  24.080  0.0000E+00  0.0000E+00  0.1280E+03
  24.090  0.0000E+00  0.0000E+00  0.1280E+03
  24.100  0.0000E+00  0.0000E+00  0.1280E+03
  24.110  0.0000E+00  0.0000E+00  0.1280E+03
  24.120  0.0000E+00  0.0000E+00  0.1280E+03
  24.130  0.0000E+00  0.0000E+00  0.1280E+03
  24.140  0.0000E+00  0.0000E+00  0.1280E+03
  24.150  0.0000E+00  0.0000E+00  0.1280E+03
  24.160  0.0000E+00  0.0000E+00  0.1280E+03
  24.170  0.0000E+00  0.0000E+00  0.1280E+03
  24.180  0.0000E+00  0.0000E+00  0.1280E+03
  24.190  0.0000E+00  0.0000E+00  0.1280E+03
  24.200  0.0000E+00  0.0000E+00  0.1280E+03
  24.210  0.0000E+00  0.0000E+00  0.1280E+03
  24.220  0.0000E+00  0.0000E+00  0.1280E+03
  24.230  0.0000E+00  0.0000E+00  0.1280E+03
  24.240  0.0000E+00  0.0000E+00  0.1280E+03
  24.250  0.0000E+00  0.0000E+00  0.1280E+03
  24.260  0.0000E+00  0.0000E+00  0.1280E+03
  24.270  0.0000E+00  0.0000E+00  0.1280E+03
  24.280  0.0000E+00  0.0000E+00  0.1280E+03
  24.290  0.0000E+00  0.0000E+00  0.1280E+03
  24.300  0.0000E+00  0.0000E+00  0.1280E+03
  24.310  0.0000E+00  0.0000E+00  0.1280E+03
  24.320  0.0000E+00  0.0000E+00  0.1280E+03
  24.330  0.0000E+00  0.0000E+00  0.1280E+03
  24.340  0.0000E+00  0.0000E+00  0.1280E+03
  24.350  0.0000E+00  0.0000E+00  0.1280E+03
  24.360  0.0000E+00  0.0000E+00  0.1280E+03
  24.370  0.0000E+00  0.0000E+00  0.1280E+03
  24.380  0.0000E+00  0.0000E+00  0.1280E+03
  24.390  0.0000E+00  0.0000E+00  0.1280E+03
  24.400  0.0000E+00  0.0000E+00  0.1280E+03
  24.410  0.0000E+00  0.0000E+00  0.1280E+03
  24.420  0.0000E+00  0.0000E+00  0.1280E+03
  24.430  0.0000E+00  0.0000E+00  0.1280E+03
  24.440  0.0000E+00  0.0000E+00  0.1280E+03
  24.450  0.0000E+00  0.0000E+00  0.1280E+03
  24.460  0.0000E+00  0.0000E+00  0.1280E+03
  24.470  0.0000E+00  0.0000E+00  0.1280E+03
  24.480  0.0000E+00  0.0000E+00  0.1280E+03
  24.490  0.0000E+00  0.0000E+00  0.1280E+03
  24.500  0.0000E+00  0.0000E+00  0.1280E+03
  24.510  0.0000E+00  0.0000E+00  0.1280E+03
  24.520  0.0000E+00  0.0000E+00  0.1280E+03
  24.530  0.0000E+00  0.0000E+00  0.1280E+03
  24.540  0.0000E+00  0.0000E+00  0.1280E+03
  24.550  0.0000E+00  0.0000E+00  0.1280E+03
  24.560  0.0000E+00  0.0000E+00  0.1280E+03
  24.570  0.0000E+00  0.0000E+00  0.1280E+03
  24.580  0.0000E+00  0.0000E+00  0.1280E+03
  24.590  0.0000E+00  0.0000E+00  0.1280E+03
  24.600  0.0000E+00  0.0000E+00  0.1280E+03
  24.610  0.0000E+00  0.0000E+00  0.1280E+03
  24.620  0.0000E+00  0.0000E+00  0.1280E+03
  24.630  0.0000E+00  0.0000E+00  0.1280E+03
  24.640  0.0000E+00  0.0000E+00  0.1280E+03
  24.650  0.0000E+00  0.0000E+00  0.1280E+03
  24.660  0.0000E+00  0.0000E+00  0.1280E+03
  24.670  0.0000E+00  0.0000E+00  0.1280E+03
  24.680  0.0000E+00  0.0000E+00  0.1280E+03
  24.690  0.0000E+00  0.0000E+00  0.1280E+03
  24.700  0.0000E+00  0.0000E+00  0.1280E+03
  24.710  0.0000E+00  0.0000E+00  0.1280E+03
  24.720  0.0000E+00  0.0000E+00  0.1280E+03
  24.730  0.0000E+00  0.0000E+00  0.1280E+03
  24.740  0.0000E+00  0.0000E+00  0.1280E+03
  24.750  0.0000E+00  0.0000E+00  0.1280E+03
  24.760  0.0000E+00  0.0000E+00  0.1280E+03
  24.770  0.0000E+00  0.0000E+00  0.1280E+03
  24.780  0.0000E+00  0.0000E+00  0.1280E+03
  24.790  0.0000E+00  0.0000E+00  0.1280E+03
  24.800  0.0000E+00  0.0000E+00  0.1280E+03
  24.810  0.0000E+00  0.0000E+00  0.1280E+03
  24.820  0.0000E+00  0.0000E+00  0.1280E+03
  24.830  0.0000E+00  0.0000E+00  0.1280E+03
  24.840  0.0000E+00  0.0000E+00  0.1280E+03
  24.850  0.0000E+00  0.0000E+00  0.1280E+03
  24.860  0.0000E+00  0.0000E+00  0.1280E+03
  24.870  0.0000E+00  0.0000E+00  0.1280E+03
  24.880  0.0000E+00  0.0000E+00  0.1280E+03
  24.890  0.0000E+00  0.0000E+00  0.1280E+03
  24.900  0.0000E+00  0.0000E+00  0.1280E+03
  24.910  0.0000E+00  0.0000E+00  0.1280E+03
  24.920  0.0000E+00  0.0000E+00  0.1280E+03
  24.930  0.0000E+00  0.0000E+00  0.1280E+03
  24.940  0.0000E+00  0.0000E+00  0.1280E+03
  24.950  0.0000E+00  0.0000E+00  0.1280E+03
  24.960  0.0000E+00  0.0000E+00  0.1280E+03
  24.970  0.0000E+00  0.0000E+00  0.1280E+03
  24.980  0.0000E+00  0.0000E+00  0.1280E+03
  24.990  0.0000E+00  0.0000E+00  0.1280E+03
  25.000  0.0000E+00  0.0000E+00  0.1280E+03
